SPECTRUM DATA FILE
SpectrumCount:	1
PixelCount:	3648
UserName:	ToughBook User
SampleName:	
LightSource:	
Comments:	
DeviceName:	Qwave
DeviceManufacturer:	Broadcom
DeviceSerialNo:	11311

Name:	last spectrum
Date:	2024-05-02T15:23:01.8234235+02:00
ExposureTime:	0.02
TemporalAvg:	1
IntensityUnit:	normalizedCounts
CCDLoadLevel:	0.07213262
Temperature:	29.98056
DiagramColor:	200
ProcessingSteps:	335

Wavelength [nm]	Intensity1
334.421	18.30792
334.5891	20.13192
334.7573	17.54838
334.9254	20.64529
335.0935	20.68727
335.2616	18.67818
335.4297	25.24268
335.5978	23.89232
335.7659	19.42982
335.934	14.28727
336.1021	14.88367
336.2701	15.76232
336.4382	12.91479
336.6063	16.40755
336.7744	18.10966
336.9424	15.09289
337.1105	14.10293
337.2785	16.55149
337.4466	21.88232
337.6146	17.47994
337.7827	18.38543
337.9507	19.38614
338.1187	16.96903
338.2867	16.40576
338.4548	15.85083
338.6228	19.30514
338.7908	24.19239
338.9588	20.05005
339.1268	17.46533
339.2948	19.45889
339.4628	20.39593
339.6308	19.00662
339.7988	19.82272
339.9667	17.97248
340.1347	21.39118
340.3027	22.53961
340.4707	19.9656
340.6386	18.43893
340.8066	19.98347
340.9745	19.87014
341.1425	19.05694
341.3104	17.26996
341.4784	17.94683
341.6463	21.15137
341.8142	23.17797
341.9821	20.98931
342.1501	22.18233
342.318	20.90356
342.4859	19.09554
342.6538	20.39102
342.8217	18.99027
342.9896	21.93949
343.1575	23.56117
343.3254	19.71495
343.4933	21.06305
343.6612	21.90987
343.829	16.95381
343.9969	20.86243
344.1648	23.17684
344.3326	15.81999
344.5005	16.77021
344.6683	19.307
344.8362	21.44926
345.004	21.97952
345.1719	26.57011
345.3397	23.48466
345.5075	20.10854
345.6754	22.51479
345.8432	24.27552
346.011	25.45758
346.1788	23.20367
346.3466	23.22078
346.5144	19.73885
346.6822	19.56859
346.85	25.39321
347.0178	21.15594
347.1856	18.51354
347.3534	18.78786
347.5211	23.44561
347.6889	20.92141
347.8567	21.74432
348.0244	18.71352
348.1922	20.44754
348.3599	20.82021
348.5277	19.78197
348.6954	19.34697
348.8632	21.64484
349.0309	18.01268
349.1986	21.83054
349.3663	18.9339
349.5341	17.88834
349.7018	20.22354
349.8695	22.84948
350.0372	27.48007
350.2049	25.86694
350.3726	24.88099
350.5403	21.49547
350.7079	17.83555
350.8756	25.78926
351.0433	28.66351
351.211	20.90865
351.3786	23.64291
351.5463	21.86843
351.714	24.60571
351.8816	34.24426
352.0493	26.5605
352.2169	25.47916
352.3846	23.46784
352.5522	21.58453
352.7198	23.73034
352.8875	29.91795
353.0551	27.47941
353.2227	28.17546
353.3903	23.96106
353.5579	23.5384
353.7255	25.75498
353.8931	32.0694
354.0607	28.30713
354.2283	29.55111
354.3958	30.94896
354.5634	29.38861
354.731	31.86802
354.8986	29.89338
355.0661	29.56234
355.2337	29.8046
355.4012	33.25402
355.5688	27.94506
355.7363	28.0713
355.9039	24.64569
356.0714	29.34324
356.239	26.31105
356.4065	27.36446
356.574	20.41405
356.7415	22.52278
356.909	20.03544
357.0765	19.75593
357.244	25.94743
357.4115	24.01192
357.579	27.16481
357.7465	21.22647
357.914	26.91195
358.0815	27.30048
358.249	20.40204
358.4164	23.98551
358.5839	20.07731
358.7513	18.94886
358.9188	22.36201
359.0862	27.67676
359.2537	24.87071
359.4211	26.5377
359.5886	31.38794
359.756	32.37915
359.9234	32.42129
360.0909	28.41366
360.2583	27.88257
360.4257	25.88678
360.5931	25.81896
360.7605	20.7903
360.9279	28.04104
361.0953	25.86633
361.2627	29.32444
361.4301	31.39493
361.5974	32.10449
361.7648	23.81266
361.9322	24.30058
362.0995	26.79367
362.2669	32.14231
362.4343	34.06254
362.6016	30.71379
362.769	33.69169
362.9363	32.13218
363.1036	31.56779
363.271	33.59353
363.4383	27.42957
363.6056	31.97896
363.7729	35.19571
363.9402	31.36555
364.1075	37.34464
364.2748	32.88858
364.4421	31.69715
364.6094	33.22092
364.7767	32.48318
364.944	34.06793
365.1113	33.12545
365.2786	34.98978
365.4458	35.85682
365.6131	32.00451
365.7803	34.35129
365.9476	40.43739
366.1148	41.20233
366.2821	36.34815
366.4493	38.13493
366.6166	36.19931
366.7838	37.11346
366.951	36.64846
367.1182	36.39841
367.2855	40.75504
367.4527	44.08266
367.6199	37.65204
367.7871	38.72866
367.9543	36.39237
368.1215	39.78505
368.2886	40.669
368.4558	38.38602
368.623	35.30173
368.7902	37.71518
368.9573	34.5475
369.1245	40.31499
369.2917	45.81126
369.4588	41.14572
369.6259	35.50269
369.7931	42.62869
369.9602	44.28154
370.1274	44.89002
370.2945	40.36494
370.4616	35.54159
370.6287	34.08102
370.7958	36.60325
370.963	35.77186
371.1301	40.84421
371.2971	44.84707
371.4643	50.71745
371.6313	40.89522
371.7984	41.87763
371.9655	38.31006
372.1326	30.60215
372.2997	35.5176
372.4667	40.84591
372.6338	39.49957
372.8008	43.22462
372.9679	42.12562
373.1349	42.17508
373.3019	40.23788
373.469	37.37775
373.636	37.30444
373.803	33.09698
373.9701	42.86176
374.1371	40.18548
374.3041	43.12763
374.4711	37.69436
374.6381	29.77907
374.8051	32.78768
374.9721	36.61041
375.1391	42.55075
375.3061	44.56232
375.473	52.83477
375.64	49.83336
375.8069	41.11612
375.9739	42.44113
376.1409	38.46338
376.3078	39.64169
376.4748	40.22255
376.6417	39.58764
376.8087	39.20142
376.9756	48.27326
377.1425	51.50846
377.3094	48.44244
377.4763	51.58298
377.6432	52.33973
377.8102	56.57106
377.9771	56.25133
378.144	54.61343
378.3109	56.85421
378.4777	58.4179
378.6446	48.18509
378.8115	43.56118
378.9784	45.3102
379.1452	43.65191
379.3121	44.54376
379.4789	42.53365
379.6458	39.76015
379.8127	44.51312
379.9795	46.38272
380.1463	46.01367
380.3131	53.9299
380.48	56.16994
380.6468	50.90953
380.8136	51.90257
380.9804	48.02811
381.1472	55.00806
381.314	54.21634
381.4808	44.7011
381.6476	43.86692
381.8144	45.17822
381.9812	40.94369
382.148	40.71145
382.3147	37.53942
382.4815	39.54358
382.6483	35.13649
382.815	38.68745
382.9818	32.50212
383.1485	36.35511
383.3153	36.12608
383.482	35.94981
383.6487	31.87624
383.8155	33.48745
383.9822	37.60343
384.1489	44.11301
384.3156	48.13153
384.4823	53.78575
384.649	53.64648
384.8157	55.25256
384.9824	55.87995
385.1491	55.77098
385.3158	55.06856
385.4825	53.65501
385.6491	43.16795
385.8158	46.20609
385.9825	44.40219
386.1491	50.06149
386.3157	56.83538
386.4824	57.66655
386.649	54.32855
386.8157	50.69159
386.9823	53.08815
387.1489	50.24365
387.3156	48.72083
387.4821	52.00533
387.6488	52.47817
387.8154	52.2492
387.982	50.56797
388.1486	46.07798
388.3152	46.12868
388.4818	46.73397
388.6483	48.12624
388.8149	45.67834
388.9815	48.44996
389.148	56.888
389.3146	60.73914
389.4811	58.7477
389.6477	64.18601
389.8142	69.72252
389.9808	63.56903
390.1473	66.80744
390.3138	62.66165
390.4804	60.17465
390.6469	58.40348
390.8134	71.24102
390.9799	68.32738
391.1464	64.5189
391.3129	66.46405
391.4794	72.42236
391.6459	70.99299
391.8124	68.09892
391.9789	63.70704
392.1453	65.36658
392.3118	60.35241
392.4782	63.84642
392.6447	53.75206
392.8112	46.80481
392.9776	37.87749
393.144	27.40534
393.3105	29.88304
393.4769	29.29423
393.6433	34.90397
393.8098	46.58225
393.9762	47.84487
394.1426	50.08163
394.309	57.76846
394.4754	62.93076
394.6418	69.721
394.8082	72.20724
394.9746	76.18575
395.141	78.35649
395.3073	72.72945
395.4737	76.99592
395.64	77.03143
395.8064	77.37
395.9728	70.59177
396.1391	63.8271
396.3055	56.39874
396.4718	49.52139
396.6381	42.66661
396.8045	38.55476
396.9708	39.49628
397.1371	45.74128
397.3034	54.00451
397.4697	61.60896
397.636	67.01952
397.8023	78.54186
397.9686	85.33604
398.1349	90.86767
398.3012	89.4537
398.4675	88.49981
398.6337	89.54964
398.8	92.21629
398.9662	98.88132
399.1325	99.23714
399.2988	94.36406
399.465	99.5976
399.6313	96.53854
399.7975	98.13062
399.9637	100.0293
400.1299	98.43168
400.2961	102.5082
400.4624	94.47522
400.6286	98.34425
400.7948	100.0919
400.961	104.1105
401.1272	107.5608
401.2934	112.5746
401.4595	105.0584
401.6257	106.9347
401.7919	109.2077
401.9581	107.3316
402.1242	106.6067
402.2904	104.5912
402.4565	104.2918
402.6227	106.6093
402.7888	105.5397
402.955	105.4381
403.1211	103.8807
403.2872	104.4037
403.4533	102.2563
403.6194	103.537
403.7856	112.3116
403.9517	114.8913
404.1177	109.9732
404.2838	104.4065
404.4499	93.49576
404.616	99.83365
404.7821	106.8567
404.9482	106.3217
405.1142	111.0042
405.2803	112.0872
405.4464	108.1149
405.6124	109.3682
405.7784	106.8256
405.9445	104.2519
406.1105	112.6113
406.2766	106.9044
406.4426	103.3385
406.6086	108.4502
406.7746	109.0414
406.9406	111.2944
407.1066	112.1226
407.2726	114.8391
407.4386	118.6534
407.6046	116.3284
407.7706	111.4925
407.9366	115.4013
408.1025	122.1222
408.2685	124.0121
408.4344	124.0247
408.6004	127.7973
408.7664	126.0064
408.9323	127.8321
409.0983	130.0965
409.2642	138.5237
409.4301	131.1829
409.596	123.7859
409.762	119.5822
409.9279	106.6046
410.0938	105.1864
410.2597	104.1062
410.4256	113.4986
410.5915	118.2374
410.7574	123.0986
410.9232	130.6462
411.0891	124.9357
411.255	130.4826
411.4209	138.3158
411.5867	142.4451
411.7526	137.8119
411.9184	137.722
412.0843	128.9621
412.2501	134.2843
412.4159	136.9789
412.5818	138.4636
412.7476	139.6201
412.9134	134.9593
413.0792	130.6256
413.245	126.1271
413.4108	122.5349
413.5766	127.425
413.7424	135.6585
413.9082	140.6843
414.074	140.0414
414.2397	133.4163
414.4055	128.0547
414.5713	124.8983
414.737	137.361
414.9028	140.0262
415.0685	137.736
415.2343	134.7108
415.4	129.102
415.5658	128.3354
415.7315	131.9837
415.8972	135.1759
416.0629	146.8458
416.2286	147.3808
416.3943	147.1096
416.56	139.9792
416.7257	145.7191
416.8914	145.8586
417.0571	143.1312
417.2228	139.0101
417.3884	132.6882
417.5541	131.4107
417.7198	136.2977
417.8854	146.7399
418.0511	142.7442
418.2167	139.1291
418.3824	135.9638
418.548	136.655
418.7136	133.2723
418.8792	140.7749
419.0449	143.3417
419.2105	143.21
419.3761	145.9612
419.5417	140.9323
419.7073	141.7514
419.8729	133.8465
420.0385	130.4845
420.204	139.6955
420.3696	147.7401
420.5352	152.4158
420.7007	159.5093
420.8663	157.1369
421.0319	161.4011
421.1974	156.1228
421.3629	156.2227
421.5285	156.2011
421.694	149.0732
421.8595	157.6206
422.0251	166.3268
422.1906	158.1802
422.3561	150.9744
422.5216	133.7421
422.6871	127.4537
422.8526	137.4018
423.0181	146.5336
423.1835	160.6893
423.349	162.5663
423.5145	155.2205
423.68	148.7309
423.8454	150.8363
424.0109	160.4667
424.1763	161.3958
424.3418	161.4161
424.5072	163.6966
424.6726	156.7605
424.838	150.3653
425.0035	145.9778
425.1689	149.8108
425.3343	154.8604
425.4997	164.6034
425.6651	160.1869
425.8305	160.0277
425.9959	149.7632
426.1613	150.1471
426.3267	158.1624
426.492	163.2763
426.6574	172.9191
426.8228	172.1869
426.9881	149.5613
427.1534	138.0033
427.3188	135.9184
427.4841	151.1012
427.6495	154.8506
427.8148	160.3324
427.9801	167.7582
428.1454	160.9099
428.3107	162.09
428.476	156.34
428.6414	150.3882
428.8066	148.8745
428.9719	144.753
429.1372	144.9934
429.3025	154.0536
429.4678	157.5574
429.633	147.0948
429.7983	136.7721
429.9636	118.3526
430.1288	118.9433
430.294	119.0725
430.4593	122.5749
430.6245	124.549
430.7897	120.3606
430.955	115.6531
431.1202	119.9234
431.2854	130.1542
431.4506	147.261
431.6158	174.8828
431.781	186.6315
431.9462	196.8965
432.1114	191.8867
432.2766	171.8197
432.4417	152.0371
432.6069	146.7548
432.772	164.5709
432.9372	175.7516
433.1024	185.6833
433.2675	194.0145
433.4326	188.912
433.5977	188.6151
433.7629	173.4187
433.928	151.3929
434.0931	139.9586
434.2582	151.9591
434.4233	169.1391
434.5884	181.4202
434.7535	187.2932
434.9186	187.2559
435.0837	181.3413
435.2488	181.7847
435.4138	182.9309
435.5789	187.7271
435.744	192.8081
435.909	199.6764
436.0741	194.5756
436.2391	192.3492
436.4042	205.4628
436.5692	210.2243
436.7342	198.7388
436.8992	194.2581
437.0643	196.0196
437.2293	202.5435
437.3943	184.8679
437.5593	190.7612
437.7243	192.8533
437.8893	199.2463
438.0542	195.3647
438.2192	181.9104
438.3842	166.0103
438.5491	163.8853
438.7141	174.5601
438.8791	191.2434
439.044	188.0262
439.209	195.6071
439.3739	195.5515
439.5388	205.2169
439.7037	203.3155
439.8687	202.2577
440.0336	200.6122
440.1985	202.2818
440.3634	186.6615
440.5283	189.7654
440.6932	183.2976
440.8581	198.9165
441.0229	208.0737
441.1878	221.2363
441.3527	221.5092
441.5175	208.7564
441.6824	208.3103
441.8472	213.3013
442.0121	222.2208
442.1769	217.9603
442.3418	216.3251
442.5066	215.7496
442.6714	212.2039
442.8362	222.555
443.001	218.6394
443.1659	222.4255
443.3307	218.1776
443.4955	207.3339
443.6602	214.1544
443.825	224.0699
443.9898	231.482
444.1546	224.5918
444.3193	214.4241
444.4841	226.6034
444.6488	224.7538
444.8136	236.6609
444.9783	227.4181
445.1431	231.099
445.3078	223.7582
445.4725	211.4247
445.6372	206.5143
445.802	204.7597
445.9667	209.5478
446.1314	211.7981
446.2961	222.261
446.4608	229.0612
446.6255	224.6107
446.7901	227.6584
446.9548	228.1169
447.1195	228.5377
447.2841	232.9303
447.4488	245.9364
447.6134	247.174
447.7781	243.9008
447.9427	239.7322
448.1074	222.7942
448.272	228.2433
448.4366	233.2833
448.6012	242.8041
448.7658	244.9551
448.9305	243.738
449.095	242.4363
449.2596	242.3284
449.4242	244.5481
449.5888	239.5964
449.7534	249.4561
449.9179	253.9225
450.0825	256.4182
450.2471	257.2012
450.4116	266.8855
450.5762	271.7651
450.7407	265.6889
450.9052	261.8071
451.0698	261.823
451.2343	262.665
451.3988	262.3567
451.5633	260.2426
451.7278	260.5286
451.8923	261.2579
452.0568	266.135
452.2213	262.6326
452.3858	253.0132
452.5503	245.8051
452.7148	235.5312
452.8792	224.5467
453.0437	233.0338
453.2081	242.0891
453.3726	244.8916
453.537	247.1186
453.7015	249.0218
453.8659	260.4566
454.0303	266.3818
454.1947	261.2917
454.3592	268.8459
454.5236	267.6069
454.688	251.8594
454.8524	247.5486
455.0168	248.4443
455.1811	251.0082
455.3455	252.7829
455.5099	255.1378
455.6743	268.3833
455.8386	268.0904
456.003	269.3775
456.1673	276.7324
456.3317	276.2953
456.496	262.4025
456.6603	266.8514
456.8246	271.471
456.989	265.9089
457.1533	259.9615
457.3176	270.8082
457.4819	276.1149
457.6462	278.6979
457.8105	271.7679
457.9748	266.6884
458.1391	262.1298
458.3033	257.8638
458.4676	257.6479
458.6319	261.3205
458.7961	267.8174
458.9604	271.7432
459.1246	260.4011
459.2888	257.781
459.4531	261.5589
459.6173	262.2772
459.7815	266.8477
459.9457	261.8543
460.11	261.3174
460.2741	264.6347
460.4384	260.7766
460.6025	266.5271
460.7667	270.3013
460.9309	282.8168
461.0951	284.0062
461.2592	279.9536
461.4234	275.5356
461.5876	279.0167
461.7517	278.3369
461.9159	272.4783
462.08	269.8677
462.2441	274.1118
462.4082	273.5747
462.5724	280.4858
462.7365	277.5904
462.9006	282.1028
463.0647	278.0252
463.2288	276.727
463.3929	282.8728
463.557	281.1145
463.721	272.2542
463.8851	277.4673
464.0492	282.6648
464.2132	281.5287
464.3773	272.7647
464.5414	267.6356
464.7054	262.352
464.8694	265.9848
465.0334	270.0058
465.1975	277.5823
465.3615	281.44
465.5255	273.7726
465.6895	280.0364
465.8535	291.6299
466.0175	290.7465
466.1815	292.7318
466.3455	279.3766
466.5095	278.2793
466.6734	261.3368
466.8374	256.608
467.0014	264.893
467.1653	271.616
467.3293	284.5156
467.4932	286.5243
467.6571	284.2627
467.8211	283.0762
467.985	285.2523
468.1489	274.7715
468.3128	276.5658
468.4767	286.5858
468.6406	294.4505
468.8045	298.9225
468.9684	294.8919
469.1323	289.8137
469.2962	292.9009
469.46	292.5006
469.6239	287.2339
469.7878	285.2836
469.9516	281.232
470.1154	270.7192
470.2793	269.7475
470.4431	271.969
470.607	278.3599
470.7708	280.3098
470.9346	279.7473
471.0984	279.9977
471.2622	293.6974
471.426	293.4372
471.5898	293.9264
471.7536	298.3582
471.9174	310.3814
472.0811	306.5723
472.2449	305.8286
472.4087	306.8404
472.5724	306.1303
472.7362	293.5918
472.8999	278.4775
473.0637	273.1159
473.2274	284.2821
473.3911	296.0955
473.5548	300.4614
473.7185	292.3787
473.8822	294.2759
474.0459	298.6285
474.2096	299.874
474.3733	298.3992
474.537	300.4858
474.7007	309.6384
474.8643	302.0321
475.028	303.2962
475.1917	295.4216
475.3553	290.0425
475.519	290.6129
475.6826	290.8987
475.8463	293.5076
476.0099	296.4497
476.1735	299.3191
476.3371	284.497
476.5007	281.5531
476.6643	283.873
476.8279	283.1904
476.9915	291.0396
477.1551	298.0419
477.3187	302.1187
477.4823	301.0757
477.6458	307.6579
477.8094	304.8477
477.9729	301.7563
478.1365	298.0573
478.3	295.1239
478.4636	294.7907
478.6271	292.256
478.7906	293.42
478.9541	290.2729
479.1176	290.064
479.2812	298.297
479.4447	312.4444
479.6082	310.7661
479.7716	295.5569
479.9351	306.7563
480.0986	300.7687
480.2621	304.6876
480.4255	299.388
480.589	300.7185
480.7524	296.3127
480.9159	303.1727
481.0793	300.9839
481.2428	292.4026
481.4062	299.3974
481.5696	307.8562
481.733	308.4573
481.8964	302.6393
482.0598	302.7762
482.2232	305.1847
482.3866	298.4614
482.55	305.6146
482.7134	302.8211
482.8768	310.6189
483.0401	311.9966
483.2035	300.2725
483.3668	304.985
483.5302	298.0692
483.6935	295.6597
483.8568	291.9862
484.0202	294.0785
484.1835	291.7361
484.3468	298.8594
484.5101	300.453
484.6734	299.1871
484.8367	301.4322
485	297.3787
485.1633	296.52
485.3266	293.576
485.4899	285.6307
485.6531	274.8857
485.8164	258.0742
485.9796	242.075
486.1429	227.3656
486.3061	226.4239
486.4694	245.6422
486.6326	269.9495
486.7958	279.3229
486.959	278.5815
487.1223	272.3219
487.2855	272.1122
487.4486	270.1717
487.6118	283.8629
487.775	289.1383
487.9382	304.3422
488.1014	308.0026
488.2646	306.451
488.4277	299.3853
488.5909	293.3083
488.754	290.8899
488.9171	281.9908
489.0803	275.3706
489.2434	275.3365
489.4066	296.045
489.5697	317.2406
489.7328	325.444
489.8959	310.8625
490.059	313.6489
490.2221	310.9238
490.3852	311.6747
490.5482	310.1307
490.7113	309.5039
490.8744	303.8735
491.0374	296.1012
491.2005	296.3412
491.3636	304.0956
491.5266	306.7474
491.6896	306.222
491.8527	278.676
492.0157	267.7087
492.1787	273.9349
492.3417	285.1266
492.5047	290.4936
492.6677	294.4017
492.8307	306.3137
492.9937	312.5144
493.1567	310.6142
493.3196	297.8747
493.4826	297.1164
493.6456	307.0879
493.8085	296.1559
493.9715	292.1793
494.1344	295.8075
494.2974	305.6805
494.4603	307.3554
494.6232	306.4131
494.7861	318.5712
494.949	318.2558
495.1119	313.4819
495.2748	318.0851
495.4377	309.2747
495.6006	299.1128
495.7635	288.2837
495.9264	293.0151
496.0892	306.9592
496.2521	315.5939
496.4149	316.9031
496.5778	314.5872
496.7407	311.0425
496.9035	307.6137
497.0663	309.524
497.2291	313.2865
497.3919	317.8956
497.5547	320.7111
497.7176	315.4575
497.8804	310.3606
498.0432	295.9703
498.2059	289.7134
498.3687	280.4363
498.5315	276.9708
498.6942	299.0985
498.857	310.4557
499.0198	314.8266
499.1825	301.1721
499.3452	302.4145
499.508	307.9631
499.6707	314.23
499.8334	310.497
499.9962	307.3641
500.1589	301.2337
500.3216	300.9842
500.4843	297.4757
500.6469	294.6295
500.8096	296.3562
500.9723	301.8475
501.135	299.8232
501.2976	299.0392
501.4603	295.8305
501.623	289.349
501.7856	290.5214
501.9482	297.7086
502.1109	296.0658
502.2735	302.4013
502.4361	308.635
502.5987	303.8136
502.7614	299.2956
502.924	305.353
503.0865	311.8939
503.2491	321.7647
503.4117	320.5435
503.5743	315.2671
503.7368	311.3246
503.8994	302.0124
504.062	285.0215
504.2245	290.1597
504.3871	307.7789
504.5496	317.6309
504.7121	320.6082
504.8746	312.9073
505.0372	313.8685
505.1997	313.6281
505.3622	322.987
505.5247	329.1286
505.6872	322.1192
505.8497	327.3417
506.0121	331.2098
506.1746	333.7762
506.3371	321.349
506.4995	321.9944
506.662	317.8789
506.8244	319.301
506.9869	330.1905
507.1493	317.4766
507.3117	315.0851
507.4742	315.7652
507.6366	317.5512
507.799	312.0712
507.9614	309.1973
508.1238	292.5755
508.2862	294.0991
508.4485	311.704
508.6109	315.3339
508.7733	316.4634
508.9357	318.6947
509.098	317.3229
509.2604	336.0457
509.4227	325.6036
509.5851	315.1178
509.7474	312.9745
509.9097	296.4664
510.072	299.1561
510.2343	315.0386
510.3966	320.7595
510.5589	319.012
510.7212	314.7626
510.8835	304.8273
511.0458	308.9184
511.2081	312.5899
511.3703	316.4643
511.5326	319.6501
511.6949	321.6463
511.8571	330.0431
512.0193	328.1155
512.1816	313.0558
512.3438	305.7132
512.506	300.7879
512.6682	300.3452
512.8304	300.2325
512.9926	297.2863
513.1548	298.362
513.317	305.0823
513.4792	306.8115
513.6414	309.4345
513.8035	296.217
513.9657	287.9201
514.1279	295.8918
514.29	299.4968
514.4521	292.1214
514.6143	297.2046
514.7764	293.2379
514.9385	294.8289
515.1006	295.8791
515.2628	304.8109
515.4249	303.8544
515.587	301.6168
515.7491	299.0732
515.9111	303.1941
516.0732	313.1244
516.2353	310.5857
