SPECTRUM DATA FILE
SpectrumCount:	1
PixelCount:	3648
UserName:	ToughBook User
SampleName:	
LightSource:	
Comments:	
DeviceName:	Qwave
DeviceManufacturer:	Broadcom
DeviceSerialNo:	11311

Name:	last spectrum
Date:	2024-05-02T15:21:34.6426656+02:00
ExposureTime:	0.02
TemporalAvg:	1
IntensityUnit:	normalizedCounts
CCDLoadLevel:	0.4240981
Temperature:	29.76636
DiagramColor:	200
ProcessingSteps:	335

Wavelength [nm]	Intensity1
334.421	104.4706
334.5891	110.3106
334.7573	101.0175
334.9254	105.493
335.0935	109.6449
335.2616	120.0999
335.4297	117.3737
335.5978	112.6542
335.7659	97.17959
335.934	91.66211
336.1021	87.58592
336.2701	91.47935
336.4382	92.33624
336.6063	95.42109
336.7744	96.59729
336.9424	90.82727
337.1105	83.17265
337.2785	93.25829
337.4466	106.5402
337.6146	107.1828
337.7827	115.0585
337.9507	111.1753
338.1187	106.725
338.2867	109.0772
338.4548	108.1475
338.6228	116.0495
338.7908	111.8165
338.9588	105.1066
339.1268	106.9197
339.2948	108.1051
339.4628	111.6861
339.6308	121.221
339.7988	129.6035
339.9667	132.4394
340.1347	127.3441
340.3027	125.7488
340.4707	123.5267
340.6386	124.6738
340.8066	119.6633
340.9745	117.4181
341.1425	119.3555
341.3104	117.9061
341.4784	116.3837
341.6463	118.6739
341.8142	124.5254
341.9821	128.6171
342.1501	132.8233
342.318	127.0712
342.4859	131.1545
342.6538	130.4285
342.8217	133.9789
342.9896	138.31
343.1575	137.5349
343.3254	138.4484
343.4933	127.4353
343.6612	124.4087
343.829	117.3067
343.9969	106.9272
344.1648	101.4695
344.3326	100.658
344.5005	104.2121
344.6683	116.1767
344.8362	124.1525
345.004	137.3805
345.1719	139.1437
345.3397	143.8557
345.5075	144.0966
345.6754	132.8241
345.8432	126.2384
346.011	123.5415
346.1788	124.5581
346.3466	128.1484
346.5144	131.1979
346.6822	142.2942
346.85	143.239
347.0178	136.8241
347.1856	127.1726
347.3534	126.2426
347.5211	122.4106
347.6889	119.1853
347.8567	134.9642
348.0244	139.692
348.1922	138.7867
348.3599	133.4325
348.5277	139.8095
348.6954	140.8168
348.8632	136.3057
349.0309	129.3017
349.1986	124.2208
349.3663	125.9242
349.5341	129.5456
349.7018	140.4185
349.8695	148.7364
350.0372	160.1997
350.2049	170.3016
350.3726	171.9619
350.5403	159.0275
350.7079	164.9114
350.8756	161.6531
351.0433	159.0636
351.211	147.5241
351.3786	148.3489
351.5463	158.1765
351.714	166.224
351.8816	164.0198
352.0493	153.867
352.2169	142.3907
352.3846	140.776
352.5522	134.9422
352.7198	147.0917
352.8875	164.1207
353.0551	170.6297
353.2227	178.5176
353.3903	176.9309
353.5579	180.4191
353.7255	192.2056
353.8931	186.9625
354.0607	181.1526
354.2283	181.3815
354.3958	192.4434
354.5634	196.4187
354.731	192.0354
354.8986	184.955
355.0661	189.4256
355.2337	182.0937
355.4012	172.8887
355.5688	177.9205
355.7363	179.4304
355.9039	173.3507
356.0714	178.7726
356.239	174.5076
356.4065	163.1157
356.574	147.2254
356.7415	141.0307
356.909	140.1907
357.0765	144.4601
357.244	145.335
357.4115	151.2649
357.579	160.2037
357.7465	155.2983
357.914	143.2313
358.0815	131.2934
358.249	116.3027
358.4164	125.5806
358.5839	124.3823
358.7513	133.5575
358.9188	154.0172
359.0862	174.3028
359.2537	185.3652
359.4211	197.2929
359.5886	205.2874
359.756	211.1759
359.9234	218.5076
360.0909	215.8254
360.2583	199.7153
360.4257	184.2852
360.5931	173.6506
360.7605	163.9143
360.9279	160.1393
361.0953	166.7261
361.2627	180.6401
361.4301	191.8501
361.5974	187.0257
361.7648	186.431
361.9322	172.9335
362.0995	173.8224
362.2669	198.3861
362.4343	215.7286
362.6016	229.5227
362.769	238.7906
362.9363	224.5472
363.1036	199.5007
363.271	179.9538
363.4383	188.4828
363.6056	202.6521
363.7729	224.4934
363.9402	233.7145
364.1075	234.6173
364.2748	224.5135
364.4421	214.6581
364.6094	192.0468
364.7767	197.3746
364.944	206.4077
365.1113	216.5467
365.2786	237.7847
365.4458	258.4916
365.6131	266.494
365.7803	274.8371
365.9476	277.0872
366.1148	277.6803
366.2821	267.6803
366.4493	267.7054
366.6166	254.8842
366.7838	256.775
366.951	259.8875
367.1182	267.5572
367.2855	270.8188
367.4527	270.1427
367.6199	258.7509
367.7871	251.4362
367.9543	238.2499
368.1215	241.3349
368.2886	246.7601
368.4558	246.8408
368.623	244.398
368.7902	240.3093
368.9573	254.1972
369.1245	280.5432
369.2917	289.8267
369.4588	287.3481
369.6259	289.2756
369.7931	296.3501
369.9602	310.442
370.1274	306.1332
370.2945	284.0767
370.4616	261.8282
370.6287	233.4162
370.7958	233.6186
370.963	259.0258
371.1301	293.2469
371.2971	316.0431
371.4643	330.6232
371.6313	327.0233
371.7984	298.1737
371.9655	254.5969
372.1326	229.207
372.2997	245.5141
372.4667	266.2431
372.6338	291.664
372.8008	296.9861
372.9679	281.2334
373.1349	262.7134
373.3019	232.0846
373.469	197.6232
373.636	190.724
373.803	218.114
373.9701	253.9973
374.1371	277.7379
374.3041	273.7448
374.4711	252.3988
374.6381	217.1463
374.8051	206.0513
374.9721	213.6745
375.1391	259.7712
375.3061	295.7997
375.473	333.5233
375.64	325.8077
375.8069	295.7516
375.9739	274.6233
376.1409	283.8232
376.3078	293.1116
376.4748	301.5069
376.6417	297.2204
376.8087	299.4468
376.9756	307.5444
377.1425	326.6495
377.3094	344.532
377.4763	357.1772
377.6432	367.8661
377.8102	377.5918
377.9771	383.2666
378.144	398.1897
378.3109	398.9157
378.4777	386.1424
378.6446	358.0217
378.8115	331.7626
378.9784	317.0674
379.1452	324.794
379.3121	319.1392
379.4789	307.8876
379.6458	290.1267
379.8127	284.6819
379.9795	305.9858
380.1463	343.8038
380.3131	373.7458
380.48	393.926
380.6468	379.6802
380.8136	381.2958
380.9804	393.2972
381.1472	384.9884
381.314	354.2039
381.4808	318.9905
381.6476	306.6558
381.8144	293.9577
381.9812	283.6387
382.148	273.6491
382.3147	267.5476
382.4815	251.7354
382.6483	235.5811
382.815	226.2107
382.9818	237.6462
383.1485	229.9195
383.3153	226.3916
383.482	225.3353
383.6487	227.6996
383.8155	233.7039
383.9822	239.0782
384.1489	268.6639
384.3156	314.5203
384.4823	356.9561
384.649	371.4349
384.8157	371.5974
384.9824	364.161
385.1491	360.4081
385.3158	358.8737
385.4825	352.6876
385.6491	324.3091
385.8158	296.903
385.9825	289.4583
386.1491	306.6432
386.3157	349.5287
386.4824	376.4079
386.649	373.8076
386.8157	359.6564
386.9823	333.222
387.1489	322.9194
387.3156	334.8579
387.4821	362.8474
387.6488	369.5338
387.8154	361.4597
387.982	338.8257
388.1486	328.4932
388.3152	336.2155
388.4818	344.1406
388.6483	328.4023
388.8149	324.4785
388.9815	349.2224
389.148	392.7847
389.3146	413.5479
389.4811	433.0805
389.6477	438.2995
389.8142	441.3458
389.9808	440.9211
390.1473	436.5382
390.3138	425.2598
390.4804	412.3633
390.6469	418.7771
390.8134	449.5174
390.9799	480.156
391.1464	512.7626
391.3129	523.5118
391.4794	500.1017
391.6459	491.2246
391.8124	480.1048
391.9789	444.6741
392.1453	416.5092
392.3118	416.8065
392.4782	406.3531
392.6447	370.9711
392.8112	324.44
392.9776	257.3608
393.144	198.3637
393.3105	164.5452
393.4769	164.1565
393.6433	196.8715
393.8098	256.455
393.9762	313.0601
394.1426	362.9332
394.309	399.0777
394.4754	414.754
394.6418	455.929
394.8082	484.3476
394.9746	509.4352
395.141	526.8518
395.3073	543.8391
395.4737	540.6838
395.64	522.6257
395.8064	524.6969
395.9728	496.3178
396.1391	439.4497
396.3055	374.0738
396.4718	315.5088
396.6381	258.6765
396.8045	211.3913
396.9708	206.0285
397.1371	250.773
397.3034	323.2166
397.4697	399.3315
397.636	476.5069
397.8023	537.2573
397.9686	586.3442
398.1349	611.3277
398.3012	623.6392
398.4675	621.9241
398.6337	631.4766
398.8	648.6642
398.9662	671.5363
399.1325	696.2777
399.2988	692.1379
399.465	686.5881
399.6313	676.8717
399.7975	665.7572
399.9637	692.9092
400.1299	719.4318
400.2961	718.0396
400.4624	689.8047
400.6286	684.3864
400.7948	685.0519
400.961	720.8347
401.1272	751.6599
401.2934	754.3771
401.4595	764.8331
401.6257	740.9122
401.7919	764.7862
401.9581	777.1646
402.1242	781.7351
402.2904	790.1157
402.4565	781.8392
402.6227	780.2187
402.7888	782.126
402.955	767.5623
403.1211	716.2953
403.2872	682.4384
403.4533	701.764
403.6194	758.6852
403.7856	805.8593
403.9517	815.3796
404.1177	813.5923
404.2838	776.2592
404.4499	719.9059
404.616	677.7078
404.7821	709.3714
404.9482	790.4734
405.1142	830.6255
405.2803	816.3319
405.4464	786.2363
405.6124	749.6613
405.7784	748.0835
405.9445	758.8723
406.1105	763.2709
406.2766	740.2641
406.4426	721.7636
406.6086	736.0668
406.7746	784.8936
406.9406	813.4041
407.1066	797.2827
407.2726	793.232
407.4386	801.3468
407.6046	786.9216
407.7706	786.7327
407.9366	791.0363
408.1025	824.1433
408.2685	870.6827
408.4344	864.644
408.6004	868.2783
408.7664	899.2141
408.9323	937.6488
409.0983	943.1045
409.2642	922.4082
409.4301	894.1042
409.596	862.8386
409.762	832.2557
409.9279	771.7627
410.0938	715.9781
410.2597	689.3168
410.4256	736.2405
410.5915	810.5194
410.7574	869.0778
410.9232	882.6354
411.0891	897.8674
411.255	918.5455
411.4209	950.475
411.5867	966.6667
411.7526	967.4283
411.9184	946.4437
412.0843	933.3939
412.2501	931.9719
412.4159	947.7159
412.5818	945.658
412.7476	936.3136
412.9134	917.5762
413.0792	903.3923
413.245	880.6607
413.4108	873.4522
413.5766	912.7418
413.7424	965.7141
413.9082	995.8901
414.074	988.1796
414.2397	934.4027
414.4055	893.2049
414.5713	909.3979
414.737	946.3553
414.9028	966.0919
415.0685	977.629
415.2343	945.2945
415.4	919.9238
415.5658	913.7444
415.7315	911.6467
415.8972	947.9168
416.0629	984.9412
416.2286	1015.191
416.3943	1027.451
416.56	1022.691
416.7257	991.0685
416.8914	971.5625
417.0571	965.8545
417.2228	935.4379
417.3884	905.1117
417.5541	909.3768
417.7198	934.571
417.8854	955.8359
418.0511	974.9617
418.2167	971.2106
418.3824	972.9525
418.548	972.9003
418.7136	960.8151
418.8792	961.4965
419.0449	996.8921
419.2105	1030.725
419.3761	1061.347
419.5417	1040.655
419.7073	988.1507
419.8729	941.4624
420.0385	937.9711
420.204	955.1382
420.3696	994.9995
420.5352	1044.958
420.7007	1088.459
420.8663	1114.007
421.0319	1121.386
421.1974	1119.673
421.3629	1130.974
421.5285	1086.731
421.694	1054.815
421.8595	1071.559
422.0251	1128.718
422.1906	1123.907
422.3561	1061.271
422.5216	929.5558
422.6871	859.8015
422.8526	918.0333
423.0181	1032.926
423.1835	1107.112
423.349	1087.736
423.5145	1046.397
423.68	1011.371
423.8454	1022.103
424.0109	1047.578
424.1763	1093.918
424.3418	1118.002
424.5072	1121.739
424.6726	1104.888
424.838	1063.604
425.0035	1006.181
425.1689	1023.198
425.3343	1065.566
425.4997	1075.714
425.6651	1099.502
425.8305	1077.455
425.9959	1013.873
426.1613	1017.824
426.3267	1067.002
426.492	1130.122
426.6574	1167.13
426.8228	1120.503
426.9881	1027.223
427.1534	936.6188
427.3188	904.2432
427.4841	949.2917
427.6495	1035.104
427.8148	1089.368
427.9801	1096.992
428.1454	1085.453
428.3107	1073.723
428.476	1068.354
428.6414	1037.964
428.8066	1001.463
428.9719	970.6099
429.1372	978.667
429.3025	1011.031
429.4678	1029.661
429.633	990.9131
429.7983	901.3923
429.9636	815.5682
430.1288	765.7354
430.294	754.6993
430.4593	771.6
430.6245	776.4134
430.7897	735.9421
430.955	720.5927
431.1202	758.4393
431.2854	869.6733
431.4506	1010.814
431.6158	1170.127
431.781	1279.964
431.9462	1319.476
432.1114	1269.232
432.2766	1159.393
432.4417	1018.377
432.6069	972.2813
432.772	1044.437
432.9372	1182.144
433.1024	1256.936
433.2675	1277.707
433.4326	1278.614
433.5977	1229.063
433.7629	1115.175
433.928	987.1226
434.0931	912.2477
434.2582	967.6629
434.4233	1082.91
434.5884	1197.192
434.7535	1261.684
434.9186	1287.035
435.0837	1249.946
435.2488	1190.484
435.4138	1178.047
435.5789	1240.236
435.744	1299.251
435.909	1306.575
436.0741	1325.908
436.2391	1355.098
436.4042	1377.069
436.5692	1391.472
436.7342	1370.304
436.8992	1339.355
437.0643	1315.446
437.2293	1296.822
437.3943	1258.986
437.5593	1245.653
437.7243	1267.628
437.8893	1309.71
438.0542	1301.637
438.2192	1197.446
438.3842	1059.309
438.5491	1044.875
438.7141	1130.814
438.8791	1230.328
439.044	1254.653
439.209	1250.793
439.3739	1269.503
439.5388	1299.381
439.7037	1340.831
439.8687	1356.9
440.0336	1340.841
440.1985	1306.085
440.3634	1256.703
440.5283	1223.292
440.6932	1226.927
440.8581	1305.965
441.0229	1394.535
441.1878	1448.103
441.3527	1444.079
441.5175	1379.632
441.6824	1352.986
441.8472	1409.758
442.0121	1481.651
442.1769	1491.759
442.3418	1458.5
442.5066	1431.834
442.6714	1438.088
442.8362	1448.286
443.001	1458.317
443.1659	1457.799
443.3307	1403.846
443.4955	1384.303
443.6602	1389.816
443.825	1460.094
443.9898	1511.901
444.1546	1485.089
444.3193	1445.338
444.4841	1460.93
444.6488	1503.626
444.8136	1525.102
444.9783	1522.686
445.1431	1529.36
445.3078	1480.976
445.4725	1415.182
445.6372	1351.597
445.802	1341.255
445.9667	1367.618
446.1314	1379.671
446.2961	1411.094
446.4608	1457.027
446.6255	1502.014
446.7901	1495.562
446.9548	1487.988
447.1195	1518.498
447.2841	1571.61
447.4488	1621.612
447.6134	1648.946
447.7781	1651.88
447.9427	1590.631
448.1074	1538.656
448.272	1509.349
448.4366	1576.552
448.6012	1645.738
448.7658	1652.163
448.9305	1611.545
449.095	1584.596
449.2596	1585.834
449.4242	1611.433
449.5888	1610.283
449.7534	1639.598
449.9179	1663.74
450.0825	1675.39
450.2471	1697.244
450.4116	1742.507
450.5762	1798.557
450.7407	1794.607
450.9052	1766.408
451.0698	1751.872
451.2343	1733.729
451.3988	1712.436
451.5633	1703.76
451.7278	1703.854
451.8923	1715.535
452.0568	1725.209
452.2213	1721.366
452.3858	1701.242
452.5503	1640.164
452.7148	1575.7
452.8792	1531.442
453.0437	1520.231
453.2081	1542.92
453.3726	1554.131
453.537	1563.234
453.7015	1649.019
453.8659	1708.076
454.0303	1728.039
454.1947	1712.854
454.3592	1703.314
454.5236	1692.97
454.688	1670.774
454.8524	1629.93
455.0168	1615.335
455.1811	1611.588
455.3455	1627.373
455.5099	1618.253
455.6743	1650.408
455.8386	1709.631
456.003	1751.51
456.1673	1751.672
456.3317	1752.521
456.496	1711.982
456.6603	1694.66
456.8246	1719.461
456.989	1733.477
457.1533	1724.22
457.3176	1719.663
457.4819	1751.826
457.6462	1777.727
457.8105	1755.179
457.9748	1703.893
458.1391	1643.029
458.3033	1620.712
458.4676	1626.06
458.6319	1652.106
458.7961	1674.355
458.9604	1707.994
459.1246	1712.561
459.2888	1674.05
459.4531	1669.276
459.6173	1678.364
459.7815	1669.068
459.9457	1659.44
460.11	1668.209
460.2741	1675.129
460.4384	1696.199
460.6025	1715.936
460.7667	1735.401
460.9309	1782.612
461.0951	1772.461
461.2592	1751.186
461.4234	1743.982
461.5876	1752.742
461.7517	1756.089
461.9159	1757.885
462.08	1750.926
462.2441	1783.119
462.4082	1792.597
462.5724	1788.726
462.7365	1784.311
462.9006	1794.131
463.0647	1795.379
463.2288	1798.358
463.3929	1791.386
463.557	1779.508
463.721	1751.102
463.8851	1747.572
464.0492	1757.983
464.2132	1773.806
464.3773	1760.172
464.5414	1717.179
464.7054	1684.844
464.8694	1677.285
465.0334	1708.557
465.1975	1779.437
465.3615	1787.868
465.5255	1773.136
465.6895	1781.936
465.8535	1808.12
466.0175	1839.752
466.1815	1846.196
466.3455	1809.757
466.5095	1744.339
466.6734	1677.469
466.8374	1641.13
467.0014	1667.831
467.1653	1750.063
467.3293	1796.278
467.4932	1816.049
467.6571	1828.227
467.8211	1825.857
467.985	1786.384
468.1489	1770.199
468.3128	1795.025
468.4767	1837.696
468.6406	1860.855
468.8045	1867.078
468.9684	1842.942
469.1323	1822.566
469.2962	1833.304
469.46	1851.594
469.6239	1867.543
469.7878	1849.248
469.9516	1806.938
470.1154	1759.794
470.2793	1724.155
470.4431	1724.226
470.607	1745.687
470.7708	1762.339
470.9346	1773.936
471.0984	1783.501
471.2622	1803.447
471.426	1828.889
471.5898	1831.148
471.7536	1851.02
471.9174	1912.69
472.0811	1943.476
472.2449	1951.227
472.4087	1936.946
472.5724	1906.531
472.7362	1858.265
472.8999	1796.416
473.0637	1778.193
473.2274	1791.205
473.3911	1822.416
473.5548	1843.83
473.7185	1832.837
473.8822	1833.803
474.0459	1843.836
474.2096	1867.691
474.3733	1875.428
474.537	1894.77
474.7007	1903.85
474.8643	1899.91
475.028	1889.677
475.1917	1878.18
475.3553	1835.122
475.519	1796.401
475.6826	1798.973
475.8463	1830.875
476.0099	1838.855
476.1735	1816.218
476.3371	1780.733
476.5007	1728.323
476.6643	1733.416
476.8279	1779.42
476.9915	1811.602
477.1551	1839.401
477.3187	1844.692
477.4823	1866.008
477.6458	1903.36
477.8094	1916.042
477.9729	1917.101
478.1365	1889.456
478.3	1860.064
478.4636	1837.082
478.6271	1820.96
478.7906	1807.39
478.9541	1803.952
479.1176	1826.508
479.2812	1859.985
479.4447	1895.237
479.6082	1927.034
479.7716	1920.411
479.9351	1874.94
480.0986	1850.599
480.2621	1862.26
480.4255	1848.57
480.589	1854.599
480.7524	1848.239
480.9159	1839.542
481.0793	1843.769
481.2428	1857.778
481.4062	1888.834
481.5696	1905.874
481.733	1930.342
481.8964	1928.604
482.0598	1914.956
482.2232	1883.839
482.3866	1855.538
482.55	1835.978
482.7134	1848.612
482.8768	1879.396
483.0401	1871.969
483.2035	1864.767
483.3668	1867.763
483.5302	1870.589
483.6935	1868.107
483.8568	1848.332
484.0202	1822.881
484.1835	1815.23
484.3468	1808.788
484.5101	1850.734
484.6734	1874.042
484.8367	1862.722
485	1852.523
485.1633	1839.121
485.3266	1817.752
485.4899	1758.756
485.6531	1688.356
485.8164	1606.734
485.9796	1489.934
486.1429	1357.735
486.3061	1346.895
486.4694	1465.792
486.6326	1633.293
486.7958	1709.598
486.959	1724.736
487.1223	1675.981
487.2855	1652.589
487.4486	1686.399
487.6118	1758.946
487.775	1807.816
487.9382	1829.127
488.1014	1856.16
488.2646	1857.3
488.4277	1823.4
488.5909	1784.022
488.754	1744.147
488.9171	1712.106
489.0803	1680.876
489.2434	1701.212
489.4066	1780.474
489.5697	1895.186
489.7328	1940.151
489.8959	1917.631
490.059	1893.816
490.2221	1867.435
490.3852	1865.293
490.5482	1878.394
490.7113	1872.736
490.8744	1833.543
491.0374	1788.644
491.2005	1786.687
491.3636	1815.029
491.5266	1859.039
491.6896	1854.429
491.8527	1742.804
492.0157	1630.406
492.1787	1612.352
492.3417	1672.827
492.5047	1742.836
492.6677	1815.463
492.8307	1859.188
492.9937	1878.181
493.1567	1864.522
493.3196	1832.144
493.4826	1788.196
493.6456	1760.45
493.8085	1744.721
493.9715	1735.735
494.1344	1776.9
494.2974	1859.582
494.4603	1896.714
494.6232	1887.609
494.7861	1899.288
494.949	1910.729
495.1119	1907.222
495.2748	1898.382
495.4377	1875.167
495.6006	1805.786
495.7635	1704.766
495.9264	1708.806
496.0892	1815.849
496.2521	1918.682
496.4149	1923.48
496.5778	1882.91
496.7407	1841.638
496.9035	1828.516
497.0663	1842.895
497.2291	1845.186
497.3919	1882.138
497.5547	1910.65
497.7176	1901.34
497.8804	1857.635
498.0432	1811.442
498.2059	1748.078
498.3687	1688.481
498.5315	1686.856
498.6942	1766.302
498.857	1844.375
499.0198	1867.302
499.1825	1851.748
499.3452	1843.708
499.508	1879.375
499.6707	1867.569
499.8334	1870.307
499.9962	1841.563
500.1589	1797.787
500.3216	1768.431
500.4843	1742.398
500.6469	1720.986
500.8096	1749.446
500.9723	1802.869
501.135	1819.265
501.2976	1766.382
501.4603	1725.723
501.623	1716.907
501.7856	1714.307
501.9482	1731.425
502.1109	1769.491
502.2735	1806.567
502.4361	1838.176
502.5987	1830.454
502.7614	1823.88
502.924	1828.803
503.0865	1865.674
503.2491	1909.412
503.4117	1891.384
503.5743	1852.252
503.7368	1808.285
503.8994	1764.581
504.062	1703.104
504.2245	1704.453
504.3871	1778.068
504.5496	1866.502
504.7121	1916.668
504.8746	1895.135
505.0372	1841.411
505.1997	1826.177
505.3622	1883.479
505.5247	1924.661
505.6872	1943.144
505.8497	1934.785
506.0121	1958.993
506.1746	1965.642
506.3371	1956.774
506.4995	1915.591
506.662	1874.743
506.8244	1847.025
506.9869	1871.65
507.1493	1863.239
507.3117	1857.967
507.4742	1849.106
507.6366	1854.913
507.799	1823.502
507.9614	1767.867
508.1238	1747.771
508.2862	1747.695
508.4485	1813.796
508.6109	1871.432
508.7733	1884.885
508.9357	1900.907
509.098	1899.981
509.2604	1919.86
509.4227	1913.945
509.5851	1884.462
509.7474	1814.294
509.9097	1750.348
510.072	1749.098
510.2343	1808.21
510.3966	1860.508
510.5589	1867.77
510.7212	1810.831
510.8835	1780.496
511.0458	1787.451
511.2081	1805.032
511.3703	1829.366
511.5326	1869.559
511.6949	1889.533
511.8571	1884.631
512.0193	1887.506
512.1816	1840.019
512.3438	1785.978
512.506	1738.779
512.6682	1722.581
512.8304	1730.531
512.9926	1732.244
513.1548	1745.074
513.317	1759.808
513.4792	1760.657
513.6414	1749.345
513.8035	1724.493
513.9657	1669.762
514.1279	1663.132
514.29	1676.813
514.4521	1703.042
514.6143	1709.18
514.7764	1721.291
514.9385	1711.991
515.1006	1710.428
515.2628	1717.198
515.4249	1726.01
515.587	1726.174
515.7491	1740.502
515.9111	1766.358
516.0732	1768.802
516.2353	1723.194
