SPECTRUM DATA FILE
SpectrumCount:	1
PixelCount:	3648
UserName:	ToughBook User
SampleName:	
LightSource:	
Comments:	
DeviceName:	Qwave
DeviceManufacturer:	Broadcom
DeviceSerialNo:	11311

Name:	last spectrum
Date:	2024-05-02T15:23:31.5632464+02:00
ExposureTime:	0.02
TemporalAvg:	1
IntensityUnit:	normalizedCounts
CCDLoadLevel:	0.07285842
Temperature:	29.98056
DiagramColor:	200
ProcessingSteps:	335

Wavelength [nm]	Intensity1
334.421	11.86926
334.5891	19.63802
334.7573	18.42299
334.9254	17.45999
335.0935	17.11507
335.2616	16.1421
335.4297	17.74431
335.5978	11.64965
335.7659	15.46926
335.934	18.34569
336.1021	15.05206
336.2701	12.77162
336.4382	16.62581
336.6063	15.41141
336.7744	16.56457
336.9424	13.01981
337.1105	11.64737
337.2785	12.02515
337.4466	15.89918
337.6146	17.15708
337.7827	18.52477
337.9507	16.92372
338.1187	17.48727
338.2867	19.94913
338.4548	12.33403
338.6228	21.13134
338.7908	20.31092
338.9588	15.10231
339.1268	18.58865
339.2948	13.64754
339.4628	19.10243
339.6308	15.70991
339.7988	12.02819
339.9667	17.63603
340.1347	18.64274
340.3027	21.75297
340.4707	21.22749
340.6386	20.30965
340.8066	20.56164
340.9745	15.35376
341.1425	17.36827
341.3104	16.37813
341.4784	12.25015
341.6463	19.51222
341.8142	17.84795
341.9821	17.68602
342.1501	20.22616
342.318	20.94041
342.4859	19.18086
342.6538	18.32564
342.8217	19.089
342.9896	22.6407
343.1575	21.27489
343.3254	22.53297
343.4933	16.94651
343.6612	16.5511
343.829	18.8724
343.9969	18.08299
344.1648	17.93588
344.3326	18.10875
344.5005	16.06873
344.6683	19.47725
344.8362	20.5519
345.004	19.70092
345.1719	17.75691
345.3397	16.55842
345.5075	21.63994
345.6754	23.95877
345.8432	20.57368
346.011	20.91229
346.1788	20.53017
346.3466	20.44237
346.5144	16.94672
346.6822	19.5549
346.85	20.64658
347.0178	21.19334
347.1856	22.95152
347.3534	19.11331
347.5211	18.66448
347.6889	14.73771
347.8567	14.72197
348.0244	18.93121
348.1922	23.2759
348.3599	24.30106
348.5277	22.46641
348.6954	21.8442
348.8632	18.75309
349.0309	22.45422
349.1986	18.33212
349.3663	16.88131
349.5341	21.44825
349.7018	20.01719
349.8695	21.7429
350.0372	25.8868
350.2049	22.60914
350.3726	24.73041
350.5403	25.83834
350.7079	24.84233
350.8756	22.38898
351.0433	20.36918
351.211	23.67732
351.3786	23.11136
351.5463	21.04911
351.714	21.46347
351.8816	21.18801
352.0493	23.52324
352.2169	22.01169
352.3846	24.40583
352.5522	22.42488
352.7198	22.70677
352.8875	21.71846
353.0551	16.87119
353.2227	19.95219
353.3903	25.75487
353.5579	27.93784
353.7255	27.50751
353.8931	26.26343
354.0607	21.72029
354.2283	21.28228
354.3958	26.51389
354.5634	27.12072
354.731	27.91898
354.8986	31.68122
355.0661	33.50442
355.2337	25.44049
355.4012	23.01477
355.5688	26.4622
355.7363	28.25046
355.9039	29.93873
356.0714	27.75818
356.239	24.70941
356.4065	22.54353
356.574	20.08957
356.7415	23.84371
356.909	20.95108
357.0765	23.12345
357.244	20.30805
357.4115	22.20528
357.579	22.6575
357.7465	21.78205
357.914	22.55208
358.0815	19.15599
358.249	20.08143
358.4164	22.59637
358.5839	21.42096
358.7513	17.167
358.9188	21.59974
359.0862	26.57289
359.2537	23.61712
359.4211	29.43036
359.5886	28.62045
359.756	26.60173
359.9234	29.81469
360.0909	28.69931
360.2583	22.45925
360.4257	23.43487
360.5931	24.549
360.7605	25.05214
360.9279	24.36264
361.0953	26.2938
361.2627	27.33051
361.4301	25.47922
361.5974	28.58583
361.7648	25.24739
361.9322	26.86376
362.0995	24.92956
362.2669	29.06482
362.4343	31.56552
362.6016	33.7869
362.769	33.50104
362.9363	32.7723
363.1036	32.86671
363.271	30.16082
363.4383	29.18283
363.6056	31.69655
363.7729	30.92508
363.9402	33.63205
364.1075	32.9424
364.2748	32.99247
364.4421	30.03464
364.6094	25.97567
364.7767	25.78351
364.944	34.24789
365.1113	31.33252
365.2786	28.72827
365.4458	33.9448
365.6131	35.29377
365.7803	36.39332
365.9476	39.05376
366.1148	38.7367
366.2821	37.50174
366.4493	34.1525
366.6166	33.4821
366.7838	38.57573
366.951	38.23525
367.1182	37.69822
367.2855	38.40599
367.4527	34.71868
367.6199	36.68992
367.7871	36.59321
367.9543	32.65041
368.1215	31.96936
368.2886	35.75682
368.4558	32.30716
368.623	35.72477
368.7902	33.46897
368.9573	33.97707
369.1245	35.54041
369.2917	39.60004
369.4588	41.39144
369.6259	40.44507
369.7931	39.12167
369.9602	42.47449
370.1274	47.93926
370.2945	40.42556
370.4616	31.16635
370.6287	38.27441
370.7958	38.71239
370.963	37.42109
371.1301	40.14151
371.2971	41.58707
371.4643	42.45481
371.6313	42.54292
371.7984	40.7038
371.9655	35.73785
372.1326	30.9188
372.2997	29.07133
372.4667	40.19588
372.6338	43.73968
372.8008	42.35971
372.9679	40.92145
373.1349	39.45129
373.3019	36.487
373.469	29.21141
373.636	29.13736
373.803	34.56329
373.9701	42.03136
374.1371	44.55603
374.3041	43.1025
374.4711	36.01329
374.6381	33.50991
374.8051	32.24509
374.9721	33.95531
375.1391	37.98117
375.3061	48.05612
375.473	46.54097
375.64	46.59425
375.8069	39.40253
375.9739	39.77138
376.1409	37.63295
376.3078	42.00855
376.4748	43.63858
376.6417	45.33457
376.8087	38.51449
376.9756	41.15986
377.1425	43.50813
377.3094	45.25223
377.4763	45.27296
377.6432	49.43491
377.8102	52.59595
377.9771	51.68649
378.144	57.30949
378.3109	58.26544
378.4777	58.02675
378.6446	51.23016
378.8115	49.79781
378.9784	46.88748
379.1452	50.06205
379.3121	43.33334
379.4789	42.96004
379.6458	40.24121
379.8127	40.94832
379.9795	43.00084
380.1463	49.498
380.3131	56.97527
380.48	58.44423
380.6468	57.51611
380.8136	54.72092
380.9804	52.03728
381.1472	50.97013
381.314	47.36097
381.4808	43.86911
381.6476	47.16884
381.8144	47.81954
381.9812	43.72416
382.148	39.80355
382.3147	38.85331
382.4815	38.86154
382.6483	36.93695
382.815	38.35514
382.9818	36.75038
383.1485	37.24746
383.3153	31.53214
383.482	32.86123
383.6487	35.43288
383.8155	32.88558
383.9822	37.09782
384.1489	41.20591
384.3156	48.38358
384.4823	53.85059
384.649	52.91841
384.8157	49.33308
384.9824	49.36908
385.1491	49.95333
385.3158	53.16045
385.4825	53.32477
385.6491	45.42227
385.8158	44.62862
385.9825	38.85367
386.1491	41.9664
386.3157	48.51218
386.4824	52.41737
386.649	57.82934
386.8157	50.78369
386.9823	46.40299
387.1489	45.38687
387.3156	53.9053
387.4821	57.86497
387.6488	52.77518
387.8154	54.55145
387.982	48.48372
388.1486	52.58212
388.3152	48.10432
388.4818	49.92826
388.6483	48.5927
388.8149	47.74627
388.9815	55.16468
389.148	58.25888
389.3146	60.49408
389.4811	64.06706
389.6477	61.47553
389.8142	64.13438
389.9808	59.34879
390.1473	62.85804
390.3138	66.00805
390.4804	60.86396
390.6469	64.53886
390.8134	59.32171
390.9799	66.76052
391.1464	73.21654
391.3129	73.29948
391.4794	72.41432
391.6459	65.16174
391.8124	65.04607
391.9789	63.65117
392.1453	60.45007
392.3118	60.00281
392.4782	57.69225
392.6447	49.13243
392.8112	43.20161
392.9776	36.54554
393.144	28.1052
393.3105	28.91005
393.4769	31.82127
393.6433	35.40667
393.8098	39.21136
393.9762	48.84569
394.1426	54.63674
394.309	53.62419
394.4754	55.3553
394.6418	58.43825
394.8082	69.55932
394.9746	71.3586
395.141	72.88454
395.3073	75.74688
395.4737	74.77698
395.64	76.78235
395.8064	73.92546
395.9728	72.67683
396.1391	63.7663
396.3055	53.49529
396.4718	45.00762
396.6381	39.47626
396.8045	30.16747
396.9708	35.43429
397.1371	42.68844
397.3034	51.02903
397.4697	64.86753
397.636	67.86888
397.8023	81.08965
397.9686	84.21842
398.1349	88.19743
398.3012	88.91148
398.4675	85.56178
398.6337	84.92704
398.8	94.45329
398.9662	98.1618
399.1325	101.3338
399.2988	95.58012
399.465	93.93896
399.6313	92.54831
399.7975	97.62414
399.9637	100.8377
400.1299	100.5092
400.2961	101.5398
400.4624	101.6881
400.6286	101.9525
400.7948	101.4352
400.961	105.51
401.1272	107.443
401.2934	105.192
401.4595	106.7224
401.6257	112.9764
401.7919	115.296
401.9581	110.9926
402.1242	110.4915
402.2904	102.728
402.4565	105.3609
402.6227	110.3213
402.7888	113.3147
402.955	108.8989
403.1211	99.27596
403.2872	97.41859
403.4533	99.27731
403.6194	109.7238
403.7856	111.1638
403.9517	112.8381
404.1177	111.7254
404.2838	109.2178
404.4499	102.7884
404.616	100.5365
404.7821	99.74492
404.9482	115.0429
405.1142	117.3251
405.2803	117.1921
405.4464	113.182
405.6124	104.9768
405.7784	100.3384
405.9445	104.8362
406.1105	107.8614
406.2766	105.7002
406.4426	100.9598
406.6086	104.028
406.7746	112.1579
406.9406	118.6192
407.1066	121.3303
407.2726	115.8555
407.4386	113.1455
407.6046	116.8452
407.7706	109.4118
407.9366	117.8027
408.1025	124.8721
408.2685	119.7469
408.4344	122.7208
408.6004	127.3411
408.7664	136.9029
408.9323	133.2548
409.0983	132.7936
409.2642	138.0339
409.4301	127.4291
409.596	121.7586
409.762	125.1057
409.9279	112.2346
410.0938	109.2604
410.2597	103.5652
410.4256	104.9325
410.5915	121.1603
410.7574	133.4547
410.9232	132.5035
411.0891	131.3136
411.255	135.1024
411.4209	140.9523
411.5867	139.1278
411.7526	144.6041
411.9184	134.6316
412.0843	132.4861
412.2501	132.169
412.4159	133.3198
412.5818	133.0471
412.7476	135.9219
412.9134	127.129
413.0792	124.722
413.245	126.7821
413.4108	133.3614
413.5766	136.249
413.7424	146.4546
413.9082	146.4426
414.074	145.7634
414.2397	131.7219
414.4055	128.6198
414.5713	131.8294
414.737	138.7514
414.9028	140.1231
415.0685	135.2189
415.2343	137.0331
415.4	140.9116
415.5658	137.1574
415.7315	141.5879
415.8972	140.5213
416.0629	142.2424
416.2286	147.9644
416.3943	154.1603
416.56	146.0705
416.7257	141.6148
416.8914	144.2064
417.0571	145.8853
417.2228	132.9899
417.3884	135.7816
417.5541	131.245
417.7198	137.5778
417.8854	137.88
418.0511	138.6201
418.2167	137.817
418.3824	143.4344
418.548	143.4205
418.7136	143.3016
418.8792	134.35
419.0449	142.3061
419.2105	148.3055
419.3761	152.7631
419.5417	151.4821
419.7073	140.7799
419.8729	136.5735
420.0385	134.2288
420.204	137.2606
420.3696	148.438
420.5352	150.176
420.7007	157.6261
420.8663	159.8961
421.0319	161.3294
421.1974	165.6433
421.3629	171.1734
421.5285	161.5368
421.694	153.4567
421.8595	153.744
422.0251	162.4587
422.1906	158.5448
422.3561	152.4682
422.5216	138.6646
422.6871	134.3372
422.8526	134.6784
423.0181	152.4692
423.1835	161.0379
423.349	160.9952
423.5145	157.4972
423.68	153.0848
423.8454	153.3898
424.0109	158.5476
424.1763	157.6609
424.3418	160.9415
424.5072	164.4106
424.6726	160.8602
424.838	152.5329
425.0035	151.8186
425.1689	151.9975
425.3343	158.7312
425.4997	159.0611
425.6651	165.7752
425.8305	156.9121
425.9959	151.2696
426.1613	151.8853
426.3267	159.1395
426.492	175.1091
426.6574	171.4236
426.8228	158.059
426.9881	149.2624
427.1534	138.4231
427.3188	136.8106
427.4841	143.4331
427.6495	150.9253
427.8148	164.9947
427.9801	166.9683
428.1454	161.9719
428.3107	163.5036
428.476	162.5177
428.6414	159.8073
428.8066	144.9865
428.9719	145.1485
429.1372	147.8509
429.3025	153.5432
429.4678	157.7898
429.633	153.6498
429.7983	135.4061
429.9636	118.3228
430.1288	115.4926
430.294	116.1689
430.4593	121.7127
430.6245	117.6966
430.7897	110.2627
430.955	112.4055
431.1202	118.9288
431.2854	138.7858
431.4506	156.9783
431.6158	180.3341
431.781	186.6201
431.9462	189.3169
432.1114	185.1253
432.2766	166.8244
432.4417	150.4623
432.6069	148.3932
432.772	165.3494
432.9372	183.4382
433.1024	185.0463
433.2675	192.333
433.4326	188.7505
433.5977	180.1673
433.7629	162.4607
433.928	154.3872
434.0931	145.1529
434.2582	150.8973
434.4233	164.3185
434.5884	187.1115
434.7535	198.173
434.9186	196.4366
435.0837	182.1693
435.2488	175.0794
435.4138	180.7171
435.5789	188.2301
435.744	193.4218
435.909	193.7414
436.0741	204.9763
436.2391	208.8734
436.4042	206.259
436.5692	209.7475
436.7342	208.017
436.8992	196.2753
437.0643	196.914
437.2293	196.7558
437.3943	189.7024
437.5593	192.0188
437.7243	195.4266
437.8893	198.4496
438.0542	195.4408
438.2192	183.9603
438.3842	163.913
438.5491	159.6214
438.7141	179.4416
438.8791	190.4727
439.044	195.3831
439.209	194.924
439.3739	193.4056
439.5388	200.1821
439.7037	207.9291
439.8687	211.2935
440.0336	208.1252
440.1985	202.0095
440.3634	192.8191
440.5283	190.791
440.6932	192.8116
440.8581	203.4651
441.0229	203.7749
441.1878	218.4976
441.3527	226.4413
441.5175	213.4505
441.6824	208.2335
441.8472	213.8588
442.0121	223.1775
442.1769	225.1454
442.3418	220.8219
442.5066	222.3865
442.6714	220.1832
442.8362	220.1836
443.001	222.6534
443.1659	214.8561
443.3307	213.0995
443.4955	214.1333
443.6602	218.9155
443.825	223.9719
443.9898	229.0443
444.1546	217.4768
444.3193	213.4303
444.4841	226.7304
444.6488	220.516
444.8136	224.0127
444.9783	232.9078
445.1431	234.0074
445.3078	224.7352
445.4725	210.8689
445.6372	206.6606
445.802	207.7795
445.9667	205.7184
446.1314	217.239
446.2961	216.1003
446.4608	227.8107
446.6255	236.1231
446.7901	235.029
446.9548	227.2071
447.1195	242.4187
447.2841	246.0339
447.4488	257.0721
447.6134	250.4843
447.7781	249.4143
447.9427	242.681
448.1074	233.7644
448.272	232.4445
448.4366	244.2742
448.6012	251.5319
448.7658	252.1948
448.9305	252.6527
449.095	240.4867
449.2596	245.2595
449.4242	245.1826
449.5888	246.5712
449.7534	253.2414
449.9179	254.1807
450.0825	253.607
450.2471	263.8497
450.4116	271.4394
450.5762	275.1399
450.7407	274.3199
450.9052	275.5536
451.0698	279.121
451.2343	266.6333
451.3988	269.5788
451.5633	270.0158
451.7278	264.0992
451.8923	264.5446
452.0568	268.6009
452.2213	266.5495
452.3858	267.6529
452.5503	257.7074
452.7148	246.7644
452.8792	237.8592
453.0437	232.7577
453.2081	240.9423
453.3726	240.5174
453.537	243.0989
453.7015	248.7164
453.8659	259.2295
454.0303	267.4495
454.1947	267.5938
454.3592	260.9062
454.5236	265.968
454.688	270.6622
454.8524	263.0667
455.0168	252.3704
455.1811	254.882
455.3455	254.6239
455.5099	250.3667
455.6743	258.9315
455.8386	273.6165
456.003	277.6601
456.1673	282.2803
456.3317	277.2634
456.496	269.0506
456.6603	263.6327
456.8246	271.0581
456.989	277.7584
457.1533	274.3068
457.3176	270.2899
457.4819	279.2727
457.6462	278.2593
457.8105	272.8729
457.9748	265.4243
458.1391	261.0508
458.3033	259.9698
458.4676	256.7657
458.6319	260.4652
458.7961	271.1668
458.9604	271.9305
459.1246	259.8863
459.2888	254.8809
459.4531	255.6445
459.6173	256.7098
459.7815	263.5926
459.9457	263.4403
460.11	262.3487
460.2741	265.2798
460.4384	264.8106
460.6025	269.9012
460.7667	278.0918
460.9309	284.8211
461.0951	278.7207
461.2592	281.6301
461.4234	274.8042
461.5876	274.893
461.7517	276.4516
461.9159	276.1182
462.08	269.8862
462.2441	282.9352
462.4082	278.7535
462.5724	278.2076
462.7365	277.8526
462.9006	282.1949
463.0647	285.5584
463.2288	289.7258
463.3929	284.1173
463.557	279.949
463.721	280.0901
463.8851	281.4026
464.0492	278.2665
464.2132	277.1895
464.3773	283.5125
464.5414	272.6646
464.7054	266.336
464.8694	267.0609
465.0334	275.8258
465.1975	277.0293
465.3615	282.1594
465.5255	284.5285
465.6895	282.3235
465.8535	292.7542
466.0175	298.0775
466.1815	298.5489
466.3455	287.534
466.5095	280.443
466.6734	264.2624
466.8374	256.8572
467.0014	264.1104
467.1653	271.3673
467.3293	278.8476
467.4932	284.8126
467.6571	294.5007
467.8211	291.0757
467.985	286.8126
468.1489	287.5974
468.3128	279.4333
468.4767	285.8062
468.6406	292.1983
468.8045	295.3908
468.9684	294.6636
469.1323	293.437
469.2962	288.2835
469.46	294.8329
469.6239	301.7093
469.7878	295.4166
469.9516	284.8311
470.1154	273.8807
470.2793	275.7453
470.4431	277.7686
470.607	277.2609
470.7708	289.7314
470.9346	281.8825
471.0984	286.2521
471.2622	298.2613
471.426	289.972
471.5898	289.1706
471.7536	293.6877
471.9174	307.3871
472.0811	307.1405
472.2449	302.2861
472.4087	311.0794
472.5724	304.2137
472.7362	303.0884
472.8999	291.1781
473.0637	294.7722
473.2274	294.9203
473.3911	289.1143
473.5548	289.7562
473.7185	295.5045
473.8822	301.5135
474.0459	299.4843
474.2096	305.7069
474.3733	292.8314
474.537	298.769
474.7007	305.9138
474.8643	305.0008
475.028	304.8805
475.1917	306.0911
475.3553	294.6755
475.519	289.2975
475.6826	295.5476
475.8463	289.8381
476.0099	295.4907
476.1735	295.4233
476.3371	285.114
476.5007	287.201
476.6643	281.9118
476.8279	286.7398
476.9915	294.1541
477.1551	297.0865
477.3187	303.7718
477.4823	301.8671
477.6458	311.1355
477.8094	303.1924
477.9729	298.8586
478.1365	307.9981
478.3	298.2149
478.4636	297.3282
478.6271	298.4123
478.7906	292.8531
478.9541	294.7639
479.1176	291.302
479.2812	302.9567
479.4447	309.7186
479.6082	306.55
479.7716	309.3174
479.9351	295.4051
480.0986	297.2046
480.2621	300.1628
480.4255	305.6691
480.589	307.6659
480.7524	302.742
480.9159	302.903
481.0793	296.9211
481.2428	301.6064
481.4062	309.8809
481.5696	313.9908
481.733	316.0529
481.8964	315.4534
482.0598	312.0026
482.2232	305.3837
482.3866	302.0857
482.55	301.5951
482.7134	306.1038
482.8768	312.9027
483.0401	305.399
483.2035	297.8307
483.3668	302.972
483.5302	309.0963
483.6935	313.3849
483.8568	302.8411
484.0202	293.191
484.1835	293.3129
484.3468	301.9461
484.5101	302.1612
484.6734	302.527
484.8367	306.5131
485	305.2644
485.1633	303.7753
485.3266	300.0224
485.4899	286.0418
485.6531	280.1326
485.8164	259.3196
485.9796	244.6958
486.1429	227.9552
486.3061	225.2419
486.4694	250.2597
486.6326	269.7047
486.7958	283.7961
486.959	276.6583
487.1223	275.0264
487.2855	271.9493
487.4486	275.5314
487.6118	288.4195
487.775	295.0111
487.9382	300.7919
488.1014	307.5696
488.2646	304.3938
488.4277	300.8735
488.5909	298.6439
488.754	292.6311
488.9171	289.1773
489.0803	278.9735
489.2434	283.5875
489.4066	298.4653
489.5697	310.1884
489.7328	316.7161
489.8959	315.0279
490.059	309.7082
490.2221	313.1969
490.3852	302.9806
490.5482	306.1551
490.7113	309.4869
490.8744	307.9899
491.0374	300.0687
491.2005	292.4606
491.3636	298.2844
491.5266	307.331
491.6896	306.3712
491.8527	283.6243
492.0157	268.7393
492.1787	275.4147
492.3417	283.9295
492.5047	301.9957
492.6677	310.9619
492.8307	318.5306
492.9937	313.2281
493.1567	313.2867
493.3196	310.0778
493.4826	302.5785
493.6456	291.0804
493.8085	288.5405
493.9715	294.8705
494.1344	301.9852
494.2974	313.7965
494.4603	318.4885
494.6232	314.8558
494.7861	314.158
494.949	311.1257
495.1119	317.8929
495.2748	326.1917
495.4377	320.9568
495.6006	306.5725
495.7635	287.6206
495.9264	295.9771
496.0892	318.149
496.2521	323.9317
496.4149	320.069
496.5778	314.772
496.7407	310.5246
496.9035	305.1819
497.0663	312.6055
497.2291	310.6798
497.3919	309.3764
497.5547	315.4583
497.7176	318.1794
497.8804	315.4739
498.0432	309.2227
498.2059	292.269
498.3687	284.2749
498.5315	294.0165
498.6942	308.2853
498.857	322.5997
499.0198	320.8001
499.1825	316.5997
499.3452	320.857
499.508	312.3267
499.6707	317.9705
499.8334	310.8431
499.9962	304.6277
500.1589	301.7216
500.3216	299.0078
500.4843	292.197
500.6469	296.8891
500.8096	299.7397
500.9723	305.0369
501.135	303.8504
501.2976	297.0128
501.4603	297.1513
501.623	293.5086
501.7856	293.3186
501.9482	300.2065
502.1109	307.7422
502.2735	301.204
502.4361	311.1129
502.5987	312.0291
502.7614	309.186
502.924	314.7575
503.0865	318.9542
503.2491	323.5567
503.4117	323.8824
503.5743	322.2002
503.7368	316.6729
503.8994	303.9994
504.062	289.321
504.2245	291.1573
504.3871	305.2137
504.5496	326.1066
504.7121	323.4314
504.8746	317.9839
505.0372	308.9492
505.1997	312.3988
505.3622	316.5819
505.5247	325.6594
505.6872	327.2744
505.8497	331.864
506.0121	337.0509
506.1746	336.0331
506.3371	328.2977
506.4995	325.8878
506.662	316.9953
506.8244	319.6935
506.9869	316.3991
507.1493	314.5848
507.3117	317.5601
507.4742	315.3053
507.6366	319.5423
507.799	309.5987
507.9614	305.5305
508.1238	295.4413
508.2862	302.66
508.4485	313.1548
508.6109	329.6089
508.7733	331.1963
508.9357	331.2881
509.098	331.5047
509.2604	331.6003
509.4227	335.3122
509.5851	327.6573
509.7474	314.3242
509.9097	308.4316
510.072	301.6584
510.2343	313.0992
510.3966	325.0233
510.5589	326.9736
510.7212	313.3896
510.8835	311.4068
511.0458	301.8382
511.2081	319.4805
511.3703	324.0622
511.5326	326.4763
511.6949	319.0574
511.8571	317.7844
512.0193	321.4796
512.1816	308.4073
512.3438	300.1971
512.506	304.1096
512.6682	298.4766
512.8304	302.4256
512.9926	306.368
513.1548	301.1365
513.317	306.0259
513.4792	314.2902
513.6414	309.5714
513.8035	301.7487
513.9657	295.7902
514.1279	290.3189
514.29	295.3872
514.4521	303.2686
514.6143	299.8781
514.7764	298.4286
514.9385	302.1818
515.1006	312.7993
515.2628	300.9812
515.4249	306.9649
515.587	309.714
515.7491	304.1858
515.9111	304.7508
516.0732	308.1095
516.2353	303.6895
