SPECTRUM DATA FILE
SpectrumCount:	1
PixelCount:	3648
UserName:	ToughBook User
SampleName:	
LightSource:	
Comments:	
DeviceName:	Qwave
DeviceManufacturer:	Broadcom
DeviceSerialNo:	11311

Name:	last spectrum
Date:	2024-05-02T15:22:18.8625584+02:00
ExposureTime:	0.02
TemporalAvg:	1
IntensityUnit:	normalizedCounts
CCDLoadLevel:	0.08050092
Temperature:	29.87341
DiagramColor:	200
ProcessingSteps:	335

Wavelength [nm]	Intensity1
334.421	14.80002
334.5891	20.01059
334.7573	18.83286
334.9254	20.46025
335.0935	20.83496
335.2616	22.89838
335.4297	26.16251
335.5978	22.40527
335.7659	21.88793
335.934	18.13988
336.1021	17.55536
336.2701	14.58138
336.4382	16.21367
336.6063	17.82909
336.7744	16.55334
336.9424	14.23869
337.1105	17.69255
337.2785	22.09382
337.4466	20.65587
337.6146	21.59594
337.7827	24.13108
337.9507	17.01723
338.1187	12.2264
338.2867	17.06393
338.4548	22.24556
338.6228	21.28878
338.7908	14.92453
338.9588	19.66355
339.1268	20.87869
339.2948	18.87744
339.4628	19.78275
339.6308	17.4739
339.7988	18.02634
339.9667	21.21015
340.1347	17.75554
340.3027	18.93058
340.4707	23.49765
340.6386	25.25518
340.8066	19.20973
340.9745	17.44603
341.1425	20.57867
341.3104	20.71905
341.4784	23.59481
341.6463	21.58017
341.8142	20.37893
341.9821	22.36529
342.1501	22.46817
342.318	21.42441
342.4859	23.74574
342.6538	19.42238
342.8217	22.40135
342.9896	24.39278
343.1575	21.29123
343.3254	20.26005
343.4933	26.21861
343.6612	25.83408
343.829	17.49363
343.9969	24.6998
344.1648	15.8882
344.3326	16.46436
344.5005	19.44262
344.6683	21.84474
344.8362	19.40337
345.004	21.85573
345.1719	22.12695
345.3397	25.08072
345.5075	20.65594
345.6754	23.75131
345.8432	24.14307
346.011	19.66781
346.1788	19.81942
346.3466	21.51246
346.5144	22.85604
346.6822	23.54558
346.85	24.24093
347.0178	25.50879
347.1856	19.94732
347.3534	19.61941
347.5211	22.42418
347.6889	16.67349
347.8567	21.14879
348.0244	23.54691
348.1922	23.13615
348.3599	26.69832
348.5277	20.06832
348.6954	21.31125
348.8632	29.43243
349.0309	27.61771
349.1986	17.64636
349.3663	22.54805
349.5341	20.16689
349.7018	24.34394
349.8695	26.58026
350.0372	27.16393
350.2049	23.5673
350.3726	29.64481
350.5403	24.60324
350.7079	27.30775
350.8756	26.98957
351.0433	24.06582
351.211	23.62472
351.3786	24.67762
351.5463	22.4703
351.714	23.13956
351.8816	29.80823
352.0493	31.50438
352.2169	27.29943
352.3846	22.57459
352.5522	24.55534
352.7198	27.32062
352.8875	29.12698
353.0551	28.61459
353.2227	28.68365
353.3903	32.53162
353.5579	33.17124
353.7255	32.99741
353.8931	31.80382
354.0607	33.78
354.2283	29.99503
354.3958	28.00827
354.5634	27.58341
354.731	27.32052
354.8986	31.17136
355.0661	28.61541
355.2337	29.80833
355.4012	28.05619
355.5688	25.97449
355.7363	27.38292
355.9039	30.24025
356.0714	28.26033
356.239	29.44954
356.4065	28.38185
356.574	27.99719
356.7415	27.68922
356.909	22.35265
357.0765	25.69732
357.244	25.36244
357.4115	25.17868
357.579	25.61774
357.7465	29.62928
357.914	25.56493
358.0815	17.91345
358.249	21.69175
358.4164	22.31678
358.5839	19.49426
358.7513	21.00667
358.9188	21.57135
359.0862	29.62377
359.2537	29.22943
359.4211	29.75038
359.5886	37.72644
359.756	36.98758
359.9234	31.89457
360.0909	33.40036
360.2583	33.13234
360.4257	33.10256
360.5931	28.42441
360.7605	26.778
360.9279	25.85249
361.0953	31.03871
361.2627	33.85159
361.4301	32.39273
361.5974	34.08101
361.7648	33.83611
361.9322	30.46667
362.0995	28.36944
362.2669	29.97561
362.4343	31.24496
362.6016	37.86313
362.769	37.68625
362.9363	38.83696
363.1036	33.27972
363.271	28.37193
363.4383	28.51114
363.6056	31.6086
363.7729	34.84937
363.9402	43.78613
364.1075	35.83847
364.2748	34.3499
364.4421	38.59332
364.6094	30.00705
364.7767	32.99417
364.944	34.60641
365.1113	37.63724
365.2786	40.46228
365.4458	41.23424
365.6131	39.75543
365.7803	41.86475
365.9476	41.71701
366.1148	41.4757
366.2821	38.0445
366.4493	44.83677
366.6166	43.67027
366.7838	44.17135
366.951	36.95264
367.1182	43.22868
367.2855	40.44948
367.4527	43.11427
367.6199	37.30355
367.7871	38.35956
367.9543	42.29855
368.1215	38.5735
368.2886	37.98332
368.4558	38.85958
368.623	38.86928
368.7902	36.09034
368.9573	40.56925
369.1245	43.13332
369.2917	42.85544
369.4588	49.58293
369.6259	48.6235
369.7931	48.90513
369.9602	49.24388
370.1274	47.88252
370.2945	44.55037
370.4616	44.26924
370.6287	40.26465
370.7958	37.41563
370.963	42.03518
371.1301	48.9939
371.2971	46.34431
371.4643	49.4141
371.6313	51.55361
371.7984	51.15445
371.9655	42.36737
372.1326	40.18323
372.2997	36.69794
372.4667	40.07319
372.6338	42.62249
372.8008	42.01762
372.9679	41.74365
373.1349	42.16095
373.3019	40.45673
373.469	38.72241
373.636	33.2454
373.803	34.66783
373.9701	35.02217
374.1371	43.11958
374.3041	46.85668
374.4711	39.39972
374.6381	36.94356
374.8051	41.25272
374.9721	37.65364
375.1391	44.47933
375.3061	49.52567
375.473	52.38114
375.64	51.62649
375.8069	47.11093
375.9739	47.9664
376.1409	50.84934
376.3078	45.83187
376.4748	44.03494
376.6417	47.37595
376.8087	46.10487
376.9756	49.81699
377.1425	50.96693
377.3094	51.52391
377.4763	53.93575
377.6432	53.98468
377.8102	55.92178
377.9771	64.11121
378.144	61.13898
378.3109	60.94804
378.4777	58.07753
378.6446	52.35976
378.8115	45.32964
378.9784	46.66817
379.1452	47.41003
379.3121	47.39305
379.4789	45.16397
379.6458	47.19147
379.8127	46.96084
379.9795	50.94568
380.1463	55.35814
380.3131	57.87675
380.48	59.62061
380.6468	55.25061
380.8136	57.96975
380.9804	57.11636
381.1472	56.33371
381.314	54.90941
381.4808	46.75373
381.6476	50.24407
381.8144	43.02347
381.9812	50.31308
382.148	49.63777
382.3147	46.63501
382.4815	42.76504
382.6483	37.89872
382.815	33.32811
382.9818	43.51903
383.1485	39.31255
383.3153	40.94758
383.482	41.85673
383.6487	44.61312
383.8155	42.98749
383.9822	46.58625
384.1489	46.3249
384.3156	54.38567
384.4823	60.27058
384.649	62.73408
384.8157	61.99438
384.9824	53.63299
385.1491	57.59321
385.3158	51.74516
385.4825	56.20435
385.6491	53.02624
385.8158	52.02128
385.9825	48.15046
386.1491	50.71114
386.3157	53.66242
386.4824	61.72951
386.649	56.63972
386.8157	57.16255
386.9823	52.17857
387.1489	51.19393
387.3156	53.86373
387.4821	59.09787
387.6488	57.05721
387.8154	56.7264
387.982	52.59539
388.1486	55.22642
388.3152	59.04198
388.4818	58.47536
388.6483	57.60296
388.8149	57.76241
388.9815	58.19981
389.148	62.95046
389.3146	66.1558
389.4811	70.04883
389.6477	69.62499
389.8142	74.40388
389.9808	70.54031
390.1473	72.40952
390.3138	70.34821
390.4804	64.80417
390.6469	62.17423
390.8134	71.97398
390.9799	78.31131
391.1464	83.07783
391.3129	74.92262
391.4794	78.2571
391.6459	78.0059
391.8124	75.99559
391.9789	70.68993
392.1453	64.10899
392.3118	64.05711
392.4782	63.1883
392.6447	63.52108
392.8112	50.8505
392.9776	42.27082
393.144	34.2604
393.3105	35.51057
393.4769	38.06802
393.6433	38.85776
393.8098	46.78197
393.9762	48.93307
394.1426	55.04667
394.309	64.11234
394.4754	67.16254
394.6418	71.9151
394.8082	77.72522
394.9746	81.25491
395.141	82.62336
395.3073	83.92287
395.4737	85.09159
395.64	81.44971
395.8064	83.28786
395.9728	77.46388
396.1391	67.62135
396.3055	55.86728
396.4718	47.84882
396.6381	45.3634
396.8045	40.2238
396.9708	38.34029
397.1371	51.28492
397.3034	55.25241
397.4697	62.20114
397.636	74.22556
397.8023	87.62782
397.9686	96.26515
398.1349	96.09187
398.3012	99.57938
398.4675	98.72787
398.6337	100.2557
398.8	104.5345
398.9662	108.6616
399.1325	111.6025
399.2988	109.0692
399.465	114.2371
399.6313	103.1464
399.7975	101.7627
399.9637	112.0044
400.1299	110.9622
400.2961	111.3385
400.4624	107.8394
400.6286	101.6383
400.7948	106.1156
400.961	110.5205
401.1272	116.3044
401.2934	118.1019
401.4595	114.9599
401.6257	115.2187
401.7919	115.9838
401.9581	117.6097
402.1242	119.1619
402.2904	121.2615
402.4565	123.7492
402.6227	122.8633
402.7888	120.6144
402.955	118.3314
403.1211	112.7898
403.2872	104.4416
403.4533	111.3484
403.6194	118.8395
403.7856	129.7561
403.9517	128.5654
404.1177	122.4103
404.2838	115.3154
404.4499	115.5115
404.616	108.4786
404.7821	106.958
404.9482	120.6961
405.1142	131.0775
405.2803	124.6926
405.4464	120.0481
405.6124	117.1613
405.7784	120.238
405.9445	111.8915
406.1105	114.1673
406.2766	117.9283
406.4426	112.958
406.6086	113.9657
406.7746	113.5517
406.9406	122.0408
407.1066	121.7498
407.2726	120.8613
407.4386	125.0849
407.6046	123.2796
407.7706	111.343
407.9366	116.1218
408.1025	128.0372
408.2685	134.2841
408.4344	132.4939
408.6004	137.4552
408.7664	142.3335
408.9323	144.6609
409.0983	144.8995
409.2642	141.7947
409.4301	142.0925
409.596	136.7271
409.762	126.0849
409.9279	115.688
410.0938	116.9361
410.2597	115.8605
410.4256	110.7637
410.5915	128.4652
410.7574	136.6011
410.9232	145.3611
411.0891	140.3337
411.255	142.8609
411.4209	151.5072
411.5867	146.3686
411.7526	150.5294
411.9184	150.5265
412.0843	145.9447
412.2501	148.874
412.4159	146.2149
412.5818	148.3008
412.7476	145.8763
412.9134	143.3078
413.0792	139.6354
413.245	136.2538
413.4108	134.6578
413.5766	139.2329
413.7424	142.9269
413.9082	150.8342
414.074	152.9125
414.2397	149.5059
414.4055	142.989
414.5713	146.1377
414.737	148.2296
414.9028	145.4626
415.0685	145.0536
415.2343	149.8879
415.4	149.2278
415.5658	145.0661
415.7315	147.9432
415.8972	148.918
416.0629	156.8732
416.2286	157.815
416.3943	161.6663
416.56	158.4701
416.7257	153.9276
416.8914	153.0481
417.0571	152.5801
417.2228	148.534
417.3884	143.832
417.5541	143.0018
417.7198	147.7773
417.8854	150.5908
418.0511	156.4346
418.2167	158.4401
418.3824	154.1989
418.548	154.9637
418.7136	149.0186
418.8792	152.952
419.0449	156.4265
419.2105	162.3292
419.3761	166.4383
419.5417	166.5227
419.7073	154.5069
419.8729	151.2186
420.0385	148.9961
420.204	148.6434
420.3696	163.8309
420.5352	169.973
420.7007	171.9946
420.8663	178.1482
421.0319	177.947
421.1974	175.5168
421.3629	181.8895
421.5285	176.4243
421.694	166.0427
421.8595	171.8247
422.0251	184.3152
422.1906	177.5553
422.3561	172.603
422.5216	152.5353
422.6871	141.7905
422.8526	149.1822
423.0181	164.6853
423.1835	172.3954
423.349	167.035
423.5145	163.5303
423.68	163.2136
423.8454	164.7028
424.0109	168.6888
424.1763	178.6822
424.3418	177.9863
424.5072	175.4382
424.6726	177.0391
424.838	168.2342
425.0035	163.8354
425.1689	163.7338
425.3343	175.2988
425.4997	176.4307
425.6651	176.6575
425.8305	176.5447
425.9959	172.7466
426.1613	166.8482
426.3267	177.9002
426.492	182.0982
426.6574	185.1658
426.8228	178.8249
426.9881	164.2952
427.1534	149.731
427.3188	151.1107
427.4841	156.8705
427.6495	167.9138
427.8148	180.2215
427.9801	185.2406
428.1454	182.2015
428.3107	173.3036
428.476	171.1788
428.6414	170.4034
428.8066	167.8237
428.9719	161.9202
429.1372	164.7468
429.3025	172.0057
429.4678	178.2498
429.633	172.1526
429.7983	150.62
429.9636	136.8912
430.1288	132.0838
430.294	128.3341
430.4593	136.397
430.6245	135.3161
430.7897	128.0263
430.955	128.9048
431.1202	131.1711
431.2854	142.9001
431.4506	167.6017
431.6158	195.3993
431.781	202.6293
431.9462	206.3771
432.1114	204.0018
432.2766	184.4376
432.4417	167.074
432.6069	158.4327
432.772	166.7526
432.9372	187.9438
433.1024	204.2408
433.2675	210.4497
433.4326	210.3443
433.5977	204.6452
433.7629	188.897
433.928	165.4272
434.0931	159.315
434.2582	166.6648
434.4233	185.2471
434.5884	199.8126
434.7535	208.6593
434.9186	212.2012
435.0837	200.3763
435.2488	195.1266
435.4138	192.1751
435.5789	200.9025
435.744	211.7307
435.909	215.0427
436.0741	222.8586
436.2391	227.8849
436.4042	225.7375
436.5692	229.0988
436.7342	227.0517
436.8992	222.4329
437.0643	211.2052
437.2293	208.8602
437.3943	210.0083
437.5593	203.2492
437.7243	215.5839
437.8893	221.6454
438.0542	219.9794
438.2192	199.1778
438.3842	177.7887
438.5491	180.9447
438.7141	192.5926
438.8791	201.3281
439.044	207.4879
439.209	212.5747
439.3739	210.6409
439.5388	222.046
439.7037	221.3652
439.8687	227.4865
440.0336	225.7837
440.1985	220.5196
440.3634	211.4923
440.5283	209.9359
440.6932	209.7115
440.8581	214.248
441.0229	229.7393
441.1878	236.4889
441.3527	236.5824
441.5175	230.7456
441.6824	224.6422
441.8472	230.7339
442.0121	238.9997
442.1769	246.4275
442.3418	236.303
442.5066	239.9774
442.6714	244.6915
442.8362	246.9605
443.001	240.0858
443.1659	237.8843
443.3307	238.1383
443.4955	229.0243
443.6602	234.7906
443.825	248.4295
443.9898	249.2479
444.1546	242.114
444.3193	247.4392
444.4841	246.538
444.6488	244.0334
444.8136	249.075
444.9783	251.1463
445.1431	251.3076
445.3078	248.6039
445.4725	237.2853
445.6372	227.6674
445.802	232.012
445.9667	221.7752
446.1314	228.4323
446.2961	234.4385
446.4608	241.4947
446.6255	255.986
446.7901	258.8748
446.9548	255.8152
447.1195	250.8287
447.2841	259.472
447.4488	267.4069
447.6134	272.5418
447.7781	274.463
447.9427	261.8055
448.1074	256.219
448.272	249.0135
448.4366	259.8943
448.6012	277.2678
448.7658	272.9482
448.9305	270.1083
449.095	266.0005
449.2596	267.4203
449.4242	271.1187
449.5888	269.8897
449.7534	269.7913
449.9179	278.5564
450.0825	287.1532
450.2471	283.9992
450.4116	288.2966
450.5762	294.68
450.7407	302.3188
450.9052	296.2059
451.0698	293.153
451.2343	289.7203
451.3988	287.9365
451.5633	284.6466
451.7278	290.3044
451.8923	293.619
452.0568	285.0482
452.2213	285.1984
452.3858	287.0268
452.5503	277.8277
452.7148	268.2344
452.8792	255.9435
453.0437	259.7703
453.2081	260.9789
453.3726	266.4518
453.537	269.7212
453.7015	276.4445
453.8659	279.6171
454.0303	285.1551
454.1947	285.8137
454.3592	279.4455
454.5236	281.9822
454.688	274.7401
454.8524	269.3072
455.0168	268.9301
455.1811	269.9105
455.3455	281.0902
455.5099	283.5254
455.6743	287.2139
455.8386	292.3506
456.003	305.0916
456.1673	302.2852
456.3317	293.7177
456.496	283.7931
456.6603	284.7288
456.8246	289.2062
456.989	295.3822
457.1533	295.1203
457.3176	291.169
457.4819	291.637
457.6462	302.2547
457.8105	299.8281
457.9748	287.1666
458.1391	277.0399
458.3033	279.2763
458.4676	283.5196
458.6319	290.6408
458.7961	298.4409
458.9604	292.3671
459.1246	294.2176
459.2888	294.6652
459.4531	296.5755
459.6173	285.9906
459.7815	286.1413
459.9457	292.458
460.11	284.369
460.2741	283.9617
460.4384	288.9293
460.6025	302.1054
460.7667	305.4999
460.9309	307.5318
461.0951	304.4734
461.2592	299.0978
461.4234	292.7168
461.5876	292.4673
461.7517	296.8152
461.9159	296.1505
462.08	299.8829
462.2441	297.1059
462.4082	304.5613
462.5724	308.7068
462.7365	309.5036
462.9006	315.7808
463.0647	306.0316
463.2288	305.4896
463.3929	303.5927
463.557	303.7422
463.721	298.0859
463.8851	297.9325
464.0492	307.3353
464.2132	311.5524
464.3773	309.2882
464.5414	305.8226
464.7054	292.7533
464.8694	285.829
465.0334	289.9244
465.1975	303.6213
465.3615	308.3915
465.5255	306.0109
465.6895	301.3091
465.8535	304.6526
466.0175	316.2166
466.1815	318.7244
466.3455	316.9139
466.5095	303.2004
466.6734	291.5598
466.8374	285.4305
467.0014	291.3475
467.1653	303.5942
467.3293	313.2914
467.4932	314.1074
467.6571	319.9111
467.8211	318.0506
467.985	314.1705
468.1489	302.8629
468.3128	305.8349
468.4767	320.742
468.6406	328.5669
468.8045	319.1277
468.9684	306.8879
469.1323	308.3316
469.2962	316.7249
469.46	314.7648
469.6239	319.3911
469.7878	325.3086
469.9516	310.5463
470.1154	304.564
470.2793	294.9269
470.4431	300.7968
470.607	303.2218
470.7708	307.4004
470.9346	304.5198
471.0984	307.7634
471.2622	325.9531
471.426	322.7921
471.5898	319.817
471.7536	331.0306
471.9174	332.9472
472.0811	336.5624
472.2449	342.2475
472.4087	334.0122
472.5724	325.2622
472.7362	322.6233
472.8999	313.4662
473.0637	301.283
473.2274	306.3988
473.3911	324.0624
473.5548	321.9617
473.7185	318.1274
473.8822	328.8229
474.0459	334.3897
474.2096	326.615
474.3733	326.3311
474.537	340.6126
474.7007	333.4929
474.8643	328.6482
475.028	336.2308
475.1917	327.5391
475.3553	320.6554
475.519	319.4559
475.6826	322.0152
475.8463	317.3884
476.0099	331.3298
476.1735	327.9626
476.3371	307.2029
476.5007	309.0669
476.6643	316.2385
476.8279	315.7923
476.9915	325.7788
477.1551	325.2119
477.3187	333.4685
477.4823	330.7261
477.6458	336.6707
477.8094	339.9047
477.9729	336.1875
478.1365	329.6931
478.3	333.8568
478.4636	330.5072
478.6271	330.2412
478.7906	328.4108
478.9541	319.2341
479.1176	322.4378
479.2812	329.3479
479.4447	331.6946
479.6082	338.0932
479.7716	336.3755
479.9351	326.5331
480.0986	331.769
480.2621	328.5296
480.4255	336.0657
480.589	333.7712
480.7524	331.2872
480.9159	331.9743
481.0793	328.5867
481.2428	318.6624
481.4062	318.8036
481.5696	332.6541
481.733	338.2662
481.8964	342.2459
482.0598	344.5229
482.2232	334.5747
482.3866	330.0169
482.55	324.6042
482.7134	327.5802
482.8768	329.1456
483.0401	333.1913
483.2035	333.1199
483.3668	330.8739
483.5302	334.7874
483.6935	330.5397
483.8568	332.6118
484.0202	331.7941
484.1835	321.4983
484.3468	326.8039
484.5101	327.091
484.6734	327.1017
484.8367	335.3253
485	325.3716
485.1633	327.9753
485.3266	325.1507
485.4899	313.8325
485.6531	303.7216
485.8164	295.8233
485.9796	266.5505
486.1429	243.6592
486.3061	245.074
486.4694	263.3952
486.6326	295.1176
486.7958	311.4249
486.959	305.6571
487.1223	297.7262
487.2855	304.2459
487.4486	304.6603
487.6118	310.2789
487.775	320.7697
487.9382	330.1398
488.1014	342.6529
488.2646	332.642
488.4277	327.5532
488.5909	321.3554
488.754	315.7693
488.9171	309.9596
489.0803	310.3456
489.2434	313.1244
489.4066	328.6758
489.5697	347.4771
489.7328	353.888
489.8959	346.9923
490.059	341.4052
490.2221	339.5949
490.3852	332.941
490.5482	339.7684
490.7113	335.8263
490.8744	334.5031
491.0374	328.7906
491.2005	321.289
491.3636	328.826
491.5266	343.6906
491.6896	335.2993
491.8527	318.784
492.0157	304.3664
492.1787	296.8376
492.3417	301.0916
492.5047	317.4302
492.6677	334.0427
492.8307	335.0948
492.9937	341.838
493.1567	348.5731
493.3196	335.9171
493.4826	324.4548
493.6456	325.3593
493.8085	319.8958
493.9715	313.2897
494.1344	323.6429
494.2974	335.4407
494.4603	342.903
494.6232	342.077
494.7861	346.5746
494.949	342.7817
495.1119	347.0558
495.2748	343.884
495.4377	345.97
495.6006	335.099
495.7635	314.9087
495.9264	317.6221
496.0892	334.5523
496.2521	352.9561
496.4149	355.2817
496.5778	345.0449
496.7407	341.6693
496.9035	337.8151
497.0663	340.8299
497.2291	339.0222
497.3919	336.1642
497.5547	350.1502
497.7176	342.5088
497.8804	340.174
498.0432	335.108
498.2059	318.855
498.3687	311.943
498.5315	309.8033
498.6942	323.0455
498.857	332.9984
499.0198	338.7531
499.1825	347.9055
499.3452	340.6111
499.508	340.1191
499.6707	339.1796
499.8334	342.4835
499.9962	341.4492
500.1589	336.6356
500.3216	328.8685
500.4843	327.232
500.6469	322.5205
500.8096	330.7477
500.9723	343.718
501.135	335.6949
501.2976	321.0961
501.4603	321.2608
501.623	324.4642
501.7856	321.1829
501.9482	323.1719
502.1109	335.2126
502.2735	331.1825
502.4361	339.9044
502.5987	346.1036
502.7614	334.3482
502.924	340.5066
503.0865	351.7455
503.2491	358.3673
503.4117	355.8479
503.5743	339.6953
503.7368	336.4879
503.8994	328.973
504.062	320.6645
504.2245	312.4525
504.3871	331.9559
504.5496	347.8775
504.7121	362.8734
504.8746	347.6173
505.0372	335.2433
505.1997	335.8232
505.3622	349.6812
505.5247	355.991
505.6872	363.1717
505.8497	365.1762
506.0121	371.2576
506.1746	367.7389
506.3371	361.0682
506.4995	352.1452
506.662	341.2936
506.8244	339.9915
506.9869	352.3839
507.1493	357.3042
507.3117	353.5017
507.4742	353.9135
507.6366	356.1172
507.799	342.0065
507.9614	334.0568
508.1238	324.0964
508.2862	334.2519
508.4485	345.5161
508.6109	352.1305
508.7733	350.5711
508.9357	354.2131
509.098	354.4154
509.2604	361.2791
509.4227	363.2549
509.5851	359.9897
509.7474	347.8094
509.9097	330.8202
510.072	336.4172
510.2343	343.0203
510.3966	350.896
510.5589	349.7576
510.7212	343.571
510.8835	336.101
511.0458	339.0006
511.2081	345.3287
511.3703	346.4412
511.5326	346.8462
511.6949	359.6068
511.8571	355.1251
512.0193	367.3088
512.1816	357.006
512.3438	337.9202
512.506	336.2623
512.6682	332.1705
512.8304	324.5168
512.9926	332.8541
513.1548	336.5349
513.317	339.0238
513.4792	342.1356
513.6414	337.8091
513.8035	337.9387
513.9657	320.613
514.1279	317.4135
514.29	324.0137
514.4521	327.3692
514.6143	328.3988
514.7764	331.9432
514.9385	326.8919
515.1006	334.3391
515.2628	338.144
515.4249	329.7756
515.587	336.1456
515.7491	329.7246
515.9111	339.2461
516.0732	341.5432
516.2353	333.3939
