SPECTRUM DATA FILE
SpectrumCount:	1
PixelCount:	3648
UserName:	ToughBook User
SampleName:	
LightSource:	
Comments:	
DeviceName:	Qwave
DeviceManufacturer:	Broadcom
DeviceSerialNo:	11311

Name:	last spectrum
Date:	2024-05-02T15:23:11.2231290+02:00
ExposureTime:	0.02
TemporalAvg:	1
IntensityUnit:	normalizedCounts
CCDLoadLevel:	0.06978513
Temperature:	29.98056
DiagramColor:	200
ProcessingSteps:	335

Wavelength [nm]	Intensity1
334.421	13.45937
334.5891	15.90901
334.7573	19.36509
334.9254	21.31553
335.0935	21.79115
335.2616	17.81664
335.4297	14.63789
335.5978	17.13987
335.7659	19.99211
335.934	13.43654
336.1021	15.91489
336.2701	16.47596
336.4382	12.69646
336.6063	18.97078
336.7744	21.03196
336.9424	16.89813
337.1105	13.62883
337.2785	13.92726
337.4466	15.12436
337.6146	13.90676
337.7827	17.33682
337.9507	20.29703
338.1187	16.79829
338.2867	16.5283
338.4548	19.46539
338.6228	16.9629
338.7908	18.35888
338.9588	23.21929
339.1268	18.89302
339.2948	14.55688
339.4628	14.7791
339.6308	15.73068
339.7988	20.68676
339.9667	22.84848
340.1347	14.75813
340.3027	18.51499
340.4707	16.72882
340.6386	20.6184
340.8066	14.82215
340.9745	16.80773
341.1425	18.04737
341.3104	13.81821
341.4784	14.64407
341.6463	20.56959
341.8142	18.62855
341.9821	18.19338
342.1501	21.60353
342.318	20.75874
342.4859	16.56463
342.6538	15.98965
342.8217	16.63784
342.9896	23.86373
343.1575	20.48727
343.3254	19.93771
343.4933	17.79104
343.6612	21.603
343.829	21.8672
343.9969	14.5865
344.1648	18.36604
344.3326	22.9173
344.5005	21.2802
344.6683	17.60353
344.8362	20.87864
345.004	19.7383
345.1719	18.18824
345.3397	22.02192
345.5075	19.27857
345.6754	20.96513
345.8432	20.07291
346.011	17.09865
346.1788	16.00678
346.3466	17.6654
346.5144	20.01627
346.6822	25.10869
346.85	28.66464
347.0178	22.64017
347.1856	21.26526
347.3534	20.7095
347.5211	21.53491
347.6889	20.06708
347.8567	19.32104
348.0244	20.13015
348.1922	20.52462
348.3599	20.79171
348.5277	23.99292
348.6954	23.24977
348.8632	21.38472
349.0309	22.75724
349.1986	24.61386
349.3663	17.5335
349.5341	23.11801
349.7018	23.06555
349.8695	20.85151
350.0372	21.76613
350.2049	22.1606
350.3726	24.66818
350.5403	23.66471
350.7079	22.53439
350.8756	24.61276
351.0433	24.22272
351.211	26.3153
351.3786	22.91678
351.5463	26.19378
351.714	26.85253
351.8816	24.74504
352.0493	23.04351
352.2169	19.97142
352.3846	22.54211
352.5522	20.18062
352.7198	19.53722
352.8875	25.2424
353.0551	28.08499
353.2227	25.12893
353.3903	27.69691
353.5579	29.27627
353.7255	22.1039
353.8931	27.61
354.0607	25.65302
354.2283	19.14276
354.3958	26.01966
354.5634	25.69874
354.731	25.46739
354.8986	27.18793
355.0661	28.7999
355.2337	27.21748
355.4012	26.44037
355.5688	23.01628
355.7363	26.74345
355.9039	29.34805
356.0714	20.76916
356.239	22.8108
356.4065	27.39606
356.574	22.3955
356.7415	22.98155
356.909	20.37339
357.0765	24.64123
357.244	26.68313
357.4115	22.99788
357.579	22.10561
357.7465	25.86586
357.914	24.3838
358.0815	24.44075
358.249	21.32648
358.4164	19.87359
358.5839	16.07821
358.7513	20.77192
358.9188	23.49817
359.0862	24.80181
359.2537	25.20238
359.4211	27.17929
359.5886	32.08579
359.756	31.23042
359.9234	29.09044
360.0909	27.38865
360.2583	24.38222
360.4257	31.79046
360.5931	27.24053
360.7605	22.73386
360.9279	26.20393
361.0953	26.59974
361.2627	27.43695
361.4301	22.73081
361.5974	24.33366
361.7648	26.17861
361.9322	25.09137
362.0995	26.1505
362.2669	31.68137
362.4343	28.61691
362.6016	34.41211
362.769	37.19793
362.9363	32.1938
363.1036	23.22794
363.271	26.8774
363.4383	31.26626
363.6056	34.28818
363.7729	35.39264
363.9402	33.26087
364.1075	33.38915
364.2748	28.47777
364.4421	31.08977
364.6094	30.32338
364.7767	28.39897
364.944	33.14716
365.1113	34.95009
365.2786	36.10265
365.4458	30.18556
365.6131	39.26801
365.7803	39.6566
365.9476	39.06917
366.1148	37.86055
366.2821	40.81836
366.4493	34.86975
366.6166	41.73301
366.7838	37.60976
366.951	38.44929
367.1182	36.53728
367.2855	37.64852
367.4527	38.72652
367.6199	39.38986
367.7871	40.63285
367.9543	34.67691
368.1215	32.65856
368.2886	34.94375
368.4558	39.02761
368.623	39.41186
368.7902	34.61788
368.9573	36.98335
369.1245	38.17279
369.2917	36.01133
369.4588	37.04082
369.6259	41.67034
369.7931	43.14347
369.9602	43.8648
370.1274	40.07325
370.2945	36.39186
370.4616	38.57022
370.6287	33.25592
370.7958	33.36614
370.963	39.36273
371.1301	37.15546
371.2971	44.44736
371.4643	43.16173
371.6313	42.37167
371.7984	40.53825
371.9655	34.36463
372.1326	29.72414
372.2997	38.62652
372.4667	43.86905
372.6338	38.8232
372.8008	39.07835
372.9679	43.7354
373.1349	40.93511
373.3019	31.48557
373.469	23.78657
373.636	26.75193
373.803	34.16494
373.9701	38.56385
374.1371	41.60651
374.3041	41.22438
374.4711	36.66812
374.6381	33.73817
374.8051	30.89157
374.9721	30.91403
375.1391	37.05658
375.3061	44.2794
375.473	50.98227
375.64	42.4136
375.8069	40.87758
375.9739	42.59952
376.1409	44.41045
376.3078	42.54878
376.4748	40.95732
376.6417	40.64358
376.8087	45.66832
376.9756	44.22332
377.1425	49.98726
377.3094	48.67447
377.4763	52.66956
377.6432	54.60676
377.8102	55.39871
377.9771	53.57539
378.144	53.44987
378.3109	53.84314
378.4777	52.96051
378.6446	49.73062
378.8115	44.84151
378.9784	46.72116
379.1452	50.26564
379.3121	46.12418
379.4789	43.90348
379.6458	40.71146
379.8127	43.79424
379.9795	44.65799
380.1463	48.23858
380.3131	54.91734
380.48	53.50277
380.6468	52.3832
380.8136	49.39833
380.9804	52.86507
381.1472	52.97634
381.314	49.65952
381.4808	47.62031
381.6476	46.37909
381.8144	44.34002
381.9812	41.42669
382.148	42.70941
382.3147	38.57286
382.4815	36.88586
382.6483	34.39912
382.815	34.95507
382.9818	33.14383
383.1485	30.13426
383.3153	35.20064
383.482	35.79577
383.6487	32.70883
383.8155	35.26949
383.9822	40.48167
384.1489	41.82713
384.3156	49.59224
384.4823	55.28214
384.649	56.76999
384.8157	51.06402
384.9824	50.38802
385.1491	55.56896
385.3158	52.36006
385.4825	53.24718
385.6491	49.76399
385.8158	43.42408
385.9825	47.30192
386.1491	55.67611
386.3157	48.03503
386.4824	56.24725
386.649	47.97167
386.8157	46.27595
386.9823	46.4233
387.1489	50.14203
387.3156	47.89906
387.4821	49.39083
387.6488	55.02873
387.8154	52.39603
387.982	49.61349
388.1486	49.12842
388.3152	51.35283
388.4818	48.03718
388.6483	44.19831
388.8149	47.17202
388.9815	54.48033
389.148	56.78979
389.3146	53.58909
389.4811	59.84454
389.6477	58.36298
389.8142	56.03093
389.9808	58.69263
390.1473	59.98058
390.3138	58.69426
390.4804	51.44014
390.6469	57.54424
390.8134	60.19518
390.9799	66.57839
391.1464	68.68571
391.3129	68.98015
391.4794	72.05595
391.6459	67.36133
391.8124	64.88431
391.9789	60.67537
392.1453	56.90517
392.3118	58.71952
392.4782	60.44482
392.6447	54.32735
392.8112	48.21957
392.9776	34.49047
393.144	36.554
393.3105	31.87835
393.4769	26.79678
393.6433	31.40973
393.8098	43.7356
393.9762	51.84099
394.1426	52.58436
394.309	52.44944
394.4754	57.12522
394.6418	60.12357
394.8082	66.30145
394.9746	74.35554
395.141	71.09754
395.3073	68.73341
395.4737	75.19938
395.64	72.93831
395.8064	75.99667
395.9728	72.17738
396.1391	61.11063
396.3055	54.01473
396.4718	48.75816
396.6381	40.63174
396.8045	42.01012
396.9708	34.73103
397.1371	38.76585
397.3034	51.87408
397.4697	66.65295
397.636	75.5126
397.8023	83.6256
397.9686	85.71268
398.1349	87.81066
398.3012	90.91403
398.4675	87.04336
398.6337	85.16331
398.8	89.70541
398.9662	92.30026
399.1325	90.93476
399.2988	93.83186
399.465	87.89684
399.6313	90.02476
399.7975	94.79729
399.9637	92.29494
400.1299	97.87534
400.2961	104.9747
400.4624	97.98062
400.6286	93.13467
400.7948	96.04563
400.961	94.67766
401.1272	98.83634
401.2934	106.6859
401.4595	109.8844
401.6257	100.0778
401.7919	100.3348
401.9581	103.9453
402.1242	105.0101
402.2904	110.6118
402.4565	114.9264
402.6227	103.4003
402.7888	104.7302
402.955	105.5341
403.1211	94.61488
403.2872	94.1713
403.4533	101.1703
403.6194	107.2602
403.7856	114.5111
403.9517	121.0521
404.1177	113.8524
404.2838	108.9501
404.4499	100.8901
404.616	92.14655
404.7821	93.56011
404.9482	105.4735
405.1142	114.1361
405.2803	108.7806
405.4464	105.2993
405.6124	109.3156
405.7784	108.8912
405.9445	105.2162
406.1105	104.3354
406.2766	100.4072
406.4426	103.2106
406.6086	103.0873
406.7746	106.482
406.9406	110.8407
407.1066	107.5928
407.2726	107.2253
407.4386	110.8573
407.6046	108.6049
407.7706	113.2246
407.9366	110.3628
408.1025	114.9099
408.2685	120.557
408.4344	125.6358
408.6004	122.1293
408.7664	122.5873
408.9323	132.6538
409.0983	135.6557
409.2642	126.1856
409.4301	123.5341
409.596	119.606
409.762	117.8802
409.9279	110.0695
410.0938	99.71003
410.2597	103.3792
410.4256	105.2654
410.5915	114.7985
410.7574	122.6818
410.9232	128.2244
411.0891	128.9202
411.255	135.541
411.4209	132.156
411.5867	133.7929
411.7526	134.4275
411.9184	132.3468
412.0843	131.1275
412.2501	132.2947
412.4159	134.089
412.5818	127.643
412.7476	123.732
412.9134	127.0457
413.0792	120.9937
413.245	119.7649
413.4108	123.1471
413.5766	129.4493
413.7424	141.9263
413.9082	140.225
414.074	143.1446
414.2397	128.4793
414.4055	129.1314
414.5713	126.5046
414.737	131.5343
414.9028	133.8193
415.0685	136.1361
415.2343	134.881
415.4	130.788
415.5658	124.5717
415.7315	132.4901
415.8972	142.4618
416.0629	142.1595
416.2286	148.5513
416.3943	143.4049
416.56	146.0809
416.7257	137.6469
416.8914	138.1988
417.0571	134.8361
417.2228	128.7128
417.3884	128.2491
417.5541	128.7516
417.7198	129.5489
417.8854	133.5584
418.0511	131.5385
418.2167	131.9357
418.3824	137.7485
418.548	134.0786
418.7136	138.0988
418.8792	134.0897
419.0449	137.9175
419.2105	144.8207
419.3761	145.5134
419.5417	151.2442
419.7073	140.0654
419.8729	127.403
420.0385	133.8482
420.204	139.7912
420.3696	147.7142
420.5352	153.1875
420.7007	151.4311
420.8663	151.8832
421.0319	157.1567
421.1974	157.6035
421.3629	154.0104
421.5285	147.7231
421.694	147.276
421.8595	147.2497
422.0251	155.465
422.1906	146.8261
422.3561	150.4986
422.5216	133.9516
422.6871	126.4466
422.8526	132.8151
423.0181	146.5871
423.1835	155.1341
423.349	158.8744
423.5145	149.4425
423.68	148.6532
423.8454	150.2626
424.0109	154.2752
424.1763	157.0779
424.3418	160.133
424.5072	156.3413
424.6726	155.0303
424.838	150.37
425.0035	141.626
425.1689	148.5241
425.3343	148.2018
425.4997	153.264
425.6651	152.7919
425.8305	154.1618
425.9959	146.0275
426.1613	147.4664
426.3267	159.3721
426.492	167.2912
426.6574	166.4837
426.8228	157.2569
426.9881	150.7156
427.1534	136.263
427.3188	130.8879
427.4841	135.2585
427.6495	151.8494
427.8148	157.8592
427.9801	161.0816
428.1454	152.6674
428.3107	152.307
428.476	152.1541
428.6414	152.685
428.8066	146.6211
428.9719	142.1868
429.1372	142.7967
429.3025	145.9056
429.4678	143.7758
429.633	143.6323
429.7983	132.1803
429.9636	120.9858
430.1288	116.004
430.294	116.5905
430.4593	119.1389
430.6245	120.219
430.7897	115.7547
430.955	113.8743
431.1202	116.0909
431.2854	129.0163
431.4506	149.2156
431.6158	168.1572
431.781	183.3424
431.9462	189.0611
432.1114	181.6793
432.2766	163.0943
432.4417	151.4064
432.6069	146.5352
432.772	153.6243
432.9372	168.0023
433.1024	178.9107
433.2675	180.7434
433.4326	185.8804
433.5977	179.0658
433.7629	160.5242
433.928	144.7512
434.0931	139.3101
434.2582	143.6529
434.4233	157.9767
434.5884	168.2827
434.7535	179.6569
434.9186	184.7696
435.0837	180.6725
435.2488	178.6936
435.4138	176.8117
435.5789	186.3078
435.744	189.4727
435.909	188.9377
436.0741	184.7354
436.2391	195.1577
436.4042	200.5954
436.5692	202.3946
436.7342	198.7624
436.8992	195.3103
437.0643	190.5849
437.2293	191.2601
437.3943	184.2004
437.5593	182.1649
437.7243	181.9259
437.8893	188.9455
438.0542	188.2509
438.2192	173.2894
438.3842	163.4277
438.5491	158.5237
438.7141	170.2359
438.8791	182.0523
439.044	189.008
439.209	190.1867
439.3739	184.8318
439.5388	191.6971
439.7037	194.8721
439.8687	194.401
440.0336	188.9288
440.1985	184.663
440.3634	178.6937
440.5283	180.2072
440.6932	185.518
440.8581	197.0381
441.0229	201.7182
441.1878	207.5064
441.3527	211.9318
441.5175	199.7866
441.6824	197.3605
441.8472	207.6573
442.0121	220.3985
442.1769	222.0732
442.3418	217.0377
442.5066	207.3399
442.6714	207.9223
442.8362	211.3207
443.001	215.6281
443.1659	211.9117
443.3307	206.3043
443.4955	197.6644
443.6602	208.347
443.825	220.3695
443.9898	226.8404
444.1546	218.992
444.3193	210.9536
444.4841	220.1868
444.6488	227.4481
444.8136	230.4142
444.9783	226.0424
445.1431	223.6553
445.3078	214.1162
445.4725	209.0326
445.6372	207.7448
445.802	209.9193
445.9667	201.9947
446.1314	204.1787
446.2961	215.0455
446.4608	218.812
446.6255	215.851
446.7901	218.3014
446.9548	223.8192
447.1195	226.6921
447.2841	230.7329
447.4488	241.0834
447.6134	242.0568
447.7781	242.4882
447.9427	235.2106
448.1074	228.5385
448.272	226.0207
448.4366	225.4621
448.6012	236.225
448.7658	244.0699
448.9305	232.2673
449.095	236.5516
449.2596	242.5993
449.4242	240.146
449.5888	237.0557
449.7534	238.2337
449.9179	244.5538
450.0825	251.2347
450.2471	246.3734
450.4116	254.193
450.5762	266.362
450.7407	270.3188
450.9052	262.3339
451.0698	265.7142
451.2343	255.2285
451.3988	256.9003
451.5633	244.0287
451.7278	243.1482
451.8923	258.0048
452.0568	250.55
452.2213	252.0591
452.3858	252.0499
452.5503	241.0741
452.7148	234.4914
452.8792	232.7024
453.0437	229.1384
453.2081	237.2256
453.3726	230.6008
453.537	230.6828
453.7015	252.396
453.8659	259.0471
454.0303	259.667
454.1947	254.4623
454.3592	262.0215
454.5236	253.3347
454.688	244.2872
454.8524	243.9159
455.0168	237.249
455.1811	234.3954
455.3455	240.5447
455.5099	251.807
455.6743	251.5028
455.8386	256.0537
456.003	267.4134
456.1673	267.5391
456.3317	260.9396
456.496	254.0413
456.6603	252.1556
456.8246	264.3761
456.989	266.0501
457.1533	265.53
457.3176	254.4245
457.4819	265.695
457.6462	272.8086
457.8105	260.1008
457.9748	261.9839
458.1391	246.9421
458.3033	253.1729
458.4676	244.6927
458.6319	247.9759
458.7961	252.3333
458.9604	260.9251
459.1246	265.1939
459.2888	258.1073
459.4531	254.6216
459.6173	253.8423
459.7815	247.5114
459.9457	241.0381
460.11	250.556
460.2741	258.4273
460.4384	254.306
460.6025	259.1289
460.7667	261.7755
460.9309	269.5608
461.0951	268.2351
461.2592	261.7435
461.4234	256.3839
461.5876	253.5475
461.7517	259.0352
461.9159	264.5089
462.08	271.5717
462.2441	268.0956
462.4082	270.5299
462.5724	274.0194
462.7365	274.4591
462.9006	270.7493
463.0647	269.3082
463.2288	276.5292
463.3929	270.002
463.557	269.8849
463.721	269.9772
463.8851	264.8521
464.0492	265.646
464.2132	268.5919
464.3773	263.2971
464.5414	261.9326
464.7054	254.0226
464.8694	257.1916
465.0334	262.6904
465.1975	265.1414
465.3615	271.7168
465.5255	270.9275
465.6895	269.5775
465.8535	275.9235
466.0175	281.4352
466.1815	281.7574
466.3455	266.3811
466.5095	265.4235
466.6734	257.3278
466.8374	252.3267
467.0014	253.0847
467.1653	267.9538
467.3293	271.1495
467.4932	275.8841
467.6571	283.1504
467.8211	279.3438
467.985	269.55
468.1489	272.3532
468.3128	285.7327
468.4767	281.7776
468.6406	284.6688
468.8045	287.645
468.9684	275.9468
469.1323	271.5517
469.2962	282.5945
469.46	291.2273
469.6239	288.4425
469.7878	285.9223
469.9516	280.5074
470.1154	268.2094
470.2793	263.5775
470.4431	269.3461
470.607	266.5583
470.7708	265.3405
470.9346	274.833
471.0984	284.2065
471.2622	277.2391
471.426	272.0304
471.5898	284.7207
471.7536	290.0364
471.9174	293.4006
472.0811	289.2419
472.2449	296.8031
472.4087	293.127
472.5724	291.3258
472.7362	278.2465
472.8999	277.8311
473.0637	275.4923
473.2274	276.617
473.3911	285.0805
473.5548	280.0695
473.7185	277.7388
473.8822	279.671
474.0459	278.7372
474.2096	284.2302
474.3733	284.1213
474.537	288.4278
474.7007	289.6844
474.8643	286.8108
475.028	288.1042
475.1917	290.7503
475.3553	282.0861
475.519	284.9529
475.6826	279.2003
475.8463	281.6048
476.0099	295.4889
476.1735	288.175
476.3371	275.5628
476.5007	265.4492
476.6643	270.8586
476.8279	279.132
476.9915	283.9217
477.1551	280.2802
477.3187	279.0785
477.4823	286.4124
477.6458	299.548
477.8094	299.5802
477.9729	298.0586
478.1365	295.0489
478.3	282.5847
478.4636	278.7843
478.6271	278.8157
478.7906	275.3062
478.9541	279.1461
479.1176	288.4371
479.2812	290.1651
479.4447	300.0363
479.6082	302.0251
479.7716	300.6583
479.9351	294.4381
480.0986	289.0677
480.2621	288.6854
480.4255	296.5588
480.589	292.3539
480.7524	293.7984
480.9159	288.0758
481.0793	292.8708
481.2428	289.844
481.4062	289.8436
481.5696	295.2992
481.733	294.708
481.8964	295.6785
482.0598	297.9923
482.2232	291.5983
482.3866	290.7859
482.55	280.4295
482.7134	284.184
482.8768	297.4631
483.0401	300.5689
483.2035	290.4668
483.3668	288.416
483.5302	299.4723
483.6935	295.2877
483.8568	292.9701
484.0202	291.6036
484.1835	284.4427
484.3468	282.7928
484.5101	291.123
484.6734	291.0007
484.8367	297.4457
485	294.2132
485.1633	288.3494
485.3266	280.966
485.4899	277.8922
485.6531	269.6775
485.8164	256.6749
485.9796	241.4493
486.1429	216
486.3061	220.6637
486.4694	250.3624
486.6326	267.3818
486.7958	270.6041
486.959	265.0847
487.1223	263.9872
487.2855	265.8452
487.4486	268.8367
487.6118	278.7178
487.775	280.6938
487.9382	284.6624
488.1014	296.6909
488.2646	298.3007
488.4277	285.9839
488.5909	273.9303
488.754	279.272
488.9171	272.1888
489.0803	264.0628
489.2434	277.9154
489.4066	286.1868
489.5697	301.0718
489.7328	310.8865
489.8959	314.4444
490.059	310.4434
490.2221	296.8048
490.3852	296.4996
490.5482	305.2537
490.7113	305.5354
490.8744	301.6821
491.0374	285.6146
491.2005	286.5563
491.3636	291.9625
491.5266	297.9261
491.6896	293.4875
491.8527	282.6869
492.0157	262.5977
492.1787	261.1682
492.3417	267.8468
492.5047	284.9649
492.6677	286.6718
492.8307	297.9168
492.9937	309.3405
493.1567	303.3559
493.3196	295.0208
493.4826	292.9719
493.6456	280.5472
493.8085	279.6368
493.9715	284.0369
494.1344	290.7448
494.2974	293.0622
494.4603	301.5367
494.6232	306.6018
494.7861	297.2481
494.949	300.8528
495.1119	310.2801
495.2748	305.0529
495.4377	298.429
495.6006	287.004
495.7635	279.0194
495.9264	280.4414
496.0892	299.0794
496.2521	304.9947
496.4149	305.6987
496.5778	300.7236
496.7407	293.7823
496.9035	296.987
497.0663	293.7303
497.2291	297.3153
497.3919	307.2702
497.5547	307.5213
497.7176	304.4072
497.8804	296.4872
498.0432	288.4094
498.2059	280.1661
498.3687	280.2729
498.5315	278.3658
498.6942	293.2374
498.857	302.7934
499.0198	309.1174
499.1825	312.5318
499.3452	307.1316
499.508	300.5751
499.6707	304.1004
499.8334	302.3851
499.9962	297.0484
500.1589	291.1882
500.3216	293.7671
500.4843	282.2811
500.6469	274.6981
500.8096	283.212
500.9723	288.3416
501.135	294.9366
501.2976	290.1721
501.4603	287.7974
501.623	281.3441
501.7856	282.3163
501.9482	285.3791
502.1109	296.203
502.2735	292.0232
502.4361	302.3318
502.5987	296.8892
502.7614	297.3119
502.924	301.4943
503.0865	303.6598
503.2491	312.3838
503.4117	307.7852
503.5743	299.5031
503.7368	299.847
503.8994	287.4362
504.062	274.6252
504.2245	280.4608
504.3871	290.1331
504.5496	299.4362
504.7121	305.6019
504.8746	302.202
505.0372	301.4737
505.1997	299.3826
505.3622	315.2845
505.5247	318.26
505.6872	319.7662
505.8497	315.3801
506.0121	316.3835
506.1746	321.8594
506.3371	315.4166
506.4995	313.3397
506.662	308.8106
506.8244	303.835
506.9869	314.3039
507.1493	312.2928
507.3117	309.6835
507.4742	305.7657
507.6366	298.9689
507.799	303.9028
507.9614	296.799
508.1238	296.9974
508.2862	296.8234
508.4485	300.3511
508.6109	308.0864
508.7733	320.3069
508.9357	315.9757
509.098	312.5017
509.2604	314.5006
509.4227	321.1662
509.5851	314.6968
509.7474	304.6067
509.9097	300.7719
510.072	297.5753
510.2343	306.9208
510.3966	311.4248
510.5589	302.994
510.7212	301.9796
510.8835	302.1475
511.0458	294.2666
511.2081	303.7002
511.3703	317.9712
511.5326	319.1612
511.6949	311.4721
511.8571	307.4355
512.0193	313.4425
512.1816	303.4417
512.3438	293.6927
512.506	293.3011
512.6682	291.6508
512.8304	293.4474
512.9926	299.216
513.1548	290.7946
513.317	297.626
513.4792	293.7981
513.6414	293.8872
513.8035	290.1725
513.9657	284.1913
514.1279	284.3829
514.29	286.6762
514.4521	286.7728
514.6143	293.6316
514.7764	289.2084
514.9385	288.4331
515.1006	296.5726
515.2628	292.5557
515.4249	291.3802
515.587	297.2296
515.7491	297.0128
515.9111	295.8487
516.0732	295.9503
516.2353	299.6055
516.3973	286.2227
