SPECTRUM DATA FILE
SpectrumCount:	1
PixelCount:	3648
UserName:	ToughBook User
SampleName:	
LightSource:	
Comments:	
DeviceName:	Qwave
DeviceManufacturer:	Broadcom
DeviceSerialNo:	11311

Name:	last spectrum
Date:	2024-05-02T15:22:06.8825470+02:00
ExposureTime:	0.02
TemporalAvg:	1
IntensityUnit:	normalizedCounts
CCDLoadLevel:	0.07737845
Temperature:	29.87341
DiagramColor:	200
ProcessingSteps:	335

Wavelength [nm]	Intensity1
334.421	19.18143
334.5891	20.30175
334.7573	19.07332
334.9254	21.90712
335.0935	24.51677
335.2616	21.44698
335.4297	20.04482
335.5978	19.87499
335.7659	22.11661
335.934	21.75134
336.1021	18.32266
336.2701	15.59898
336.4382	13.64798
336.6063	15.84223
336.7744	14.10065
336.9424	16.41533
337.1105	13.40805
337.2785	21.12923
337.4466	23.1911
337.6146	21.53008
337.7827	20.74074
337.9507	16.27417
338.1187	14.32139
338.2867	16.64641
338.4548	17.94565
338.6228	16.5714
338.7908	18.00996
338.9588	16.96418
339.1268	23.43856
339.2948	17.36741
339.4628	19.23847
339.6308	21.93698
339.7988	21.97836
339.9667	18.59029
340.1347	16.69677
340.3027	17.48841
340.4707	20.92151
340.6386	15.72374
340.8066	17.12184
340.9745	19.78775
341.1425	14.88411
341.3104	18.55144
341.4784	20.07062
341.6463	19.55859
341.8142	19.18822
341.9821	18.72087
342.1501	23.75933
342.318	20.48529
342.4859	19.75832
342.6538	23.1832
342.8217	21.99337
342.9896	22.87787
343.1575	19.4532
343.3254	22.24318
343.4933	23.4444
343.6612	21.65092
343.829	22.01731
343.9969	19.18945
344.1648	19.57548
344.3326	13.24353
344.5005	17.00635
344.6683	21.2394
344.8362	20.58734
345.004	24.14535
345.1719	21.54162
345.3397	22.80244
345.5075	24.20727
345.6754	23.75535
345.8432	20.26496
346.011	19.53416
346.1788	23.28693
346.3466	21.67232
346.5144	22.65699
346.6822	25.21463
346.85	22.84705
347.0178	21.05369
347.1856	23.18491
347.3534	22.55598
347.5211	16.84298
347.6889	20.00447
347.8567	23.39152
348.0244	21.5934
348.1922	21.55755
348.3599	28.00898
348.5277	26.07828
348.6954	23.37314
348.8632	18.69463
349.0309	21.4052
349.1986	14.55692
349.3663	19.03169
349.5341	19.98735
349.7018	21.62839
349.8695	23.57206
350.0372	22.67315
350.2049	23.95387
350.3726	29.06088
350.5403	28.08291
350.7079	28.80939
350.8756	25.4315
351.0433	21.55547
351.211	24.20759
351.3786	26.40274
351.5463	28.01705
351.714	23.38354
351.8816	24.72755
352.0493	27.42631
352.2169	17.56885
352.3846	21.51032
352.5522	20.55397
352.7198	21.16719
352.8875	20.28576
353.0551	26.92182
353.2227	28.23295
353.3903	28.99272
353.5579	33.83636
353.7255	28.68778
353.8931	29.62538
354.0607	29.56453
354.2283	27.98265
354.3958	34.59578
354.5634	31.90002
354.731	27.3585
354.8986	25.071
355.0661	27.26177
355.2337	30.88966
355.4012	35.62946
355.5688	32.28331
355.7363	33.02431
355.9039	27.77399
356.0714	30.22659
356.239	31.0343
356.4065	25.1303
356.574	21.90492
356.7415	21.29451
356.909	19.35503
357.0765	24.31858
357.244	25.41552
357.4115	26.37141
357.579	26.83237
357.7465	26.5727
357.914	16.96155
358.0815	21.74376
358.249	19.79448
358.4164	23.61758
358.5839	18.72708
358.7513	22.03298
358.9188	24.49856
359.0862	24.50526
359.2537	28.73456
359.4211	29.55108
359.5886	26.84427
359.756	30.01135
359.9234	35.16832
360.0909	29.68286
360.2583	27.42749
360.4257	31.54279
360.5931	28.50888
360.7605	24.78774
360.9279	25.2282
361.0953	23.09248
361.2627	29.27118
361.4301	29.00461
361.5974	23.79242
361.7648	23.92515
361.9322	25.90297
362.0995	26.49256
362.2669	28.66898
362.4343	31.96074
362.6016	33.26367
362.769	33.26297
362.9363	30.54818
363.1036	28.99856
363.271	29.01093
363.4383	31.79682
363.6056	32.91734
363.7729	32.40997
363.9402	40.61248
364.1075	40.04124
364.2748	37.75495
364.4421	30.24425
364.6094	32.54483
364.7767	32.82516
364.944	35.24135
365.1113	30.72422
365.2786	33.25658
365.4458	44.1456
365.6131	39.2856
365.7803	45.38351
365.9476	39.15245
366.1148	40.84087
366.2821	37.06371
366.4493	39.01363
366.6166	38.82539
366.7838	39.83272
366.951	39.28297
367.1182	38.57815
367.2855	35.29012
367.4527	37.6347
367.6199	36.29617
367.7871	35.46671
367.9543	39.09143
368.1215	36.31189
368.2886	37.90673
368.4558	38.0612
368.623	37.60549
368.7902	35.0014
368.9573	37.32314
369.1245	41.28825
369.2917	43.69341
369.4588	44.21731
369.6259	44.50395
369.7931	44.65047
369.9602	42.88232
370.1274	45.27701
370.2945	39.48008
370.4616	38.99015
370.6287	33.01712
370.7958	33.47536
370.963	44.12329
371.1301	44.75713
371.2971	47.37278
371.4643	52.25785
371.6313	52.97551
371.7984	45.14208
371.9655	38.12018
372.1326	35.82385
372.2997	38.25869
372.4667	38.81674
372.6338	47.52322
372.8008	46.93238
372.9679	44.16769
373.1349	40.60006
373.3019	36.87031
373.469	36.5023
373.636	30.7939
373.803	33.19305
373.9701	40.60665
374.1371	42.11758
374.3041	46.87754
374.4711	42.01706
374.6381	31.60494
374.8051	32.1423
374.9721	28.99065
375.1391	37.31515
375.3061	43.59176
375.473	45.5895
375.64	46.66208
375.8069	46.08519
375.9739	42.28956
376.1409	43.05777
376.3078	46.35218
376.4748	38.81915
376.6417	47.65244
376.8087	50.44184
376.9756	46.2926
377.1425	45.05633
377.3094	52.41154
377.4763	52.87619
377.6432	55.00959
377.8102	50.49025
377.9771	59.22938
378.144	58.34305
378.3109	55.07926
378.4777	54.04955
378.6446	52.61532
378.8115	50.02112
378.9784	47.43317
379.1452	47.76892
379.3121	45.54908
379.4789	41.7982
379.6458	43.69466
379.8127	46.69014
379.9795	47.69377
380.1463	48.0579
380.3131	53.20395
380.48	55.19178
380.6468	54.41057
380.8136	58.57539
380.9804	62.06816
381.1472	58.0919
381.314	53.39556
381.4808	48.75343
381.6476	44.30252
381.8144	49.69502
381.9812	48.37092
382.148	45.21061
382.3147	44.54653
382.4815	47.56343
382.6483	44.24577
382.815	36.34604
382.9818	36.42318
383.1485	40.42376
383.3153	35.13225
383.482	40.35223
383.6487	37.31975
383.8155	33.75921
383.9822	36.11084
384.1489	44.5549
384.3156	48.22984
384.4823	51.67702
384.649	60.6386
384.8157	63.85334
384.9824	52.82603
385.1491	57.93457
385.3158	52.02024
385.4825	57.36587
385.6491	52.03806
385.8158	51.9556
385.9825	45.77324
386.1491	49.61662
386.3157	52.94409
386.4824	58.21485
386.649	50.86478
386.8157	47.38561
386.9823	56.19331
387.1489	52.75616
387.3156	51.79543
387.4821	51.00016
387.6488	52.42377
387.8154	58.34889
387.982	49.2578
388.1486	49.50896
388.3152	51.69262
388.4818	50.85717
388.6483	51.326
388.8149	50.78646
388.9815	53.16342
389.148	60.00086
389.3146	66.9169
389.4811	69.17948
389.6477	67.33547
389.8142	71.07867
389.9808	72.91096
390.1473	67.35244
390.3138	64.3
390.4804	63.52279
390.6469	60.98064
390.8134	63.71089
390.9799	70.81114
391.1464	71.44147
391.3129	76.62561
391.4794	81.75056
391.6459	71.81299
391.8124	71.43749
391.9789	67.56238
392.1453	60.47979
392.3118	65.37269
392.4782	63.51916
392.6447	60.60733
392.8112	50.88436
392.9776	44.93162
393.144	38.93978
393.3105	31.92102
393.4769	32.49405
393.6433	37.20587
393.8098	44.0684
393.9762	53.20276
394.1426	58.16648
394.309	62.4627
394.4754	71.78476
394.6418	70.37569
394.8082	71.73147
394.9746	76.99161
395.141	82.07583
395.3073	80.89526
395.4737	81.65875
395.64	80.47258
395.8064	81.86427
395.9728	70.96478
396.1391	63.16216
396.3055	63.38025
396.4718	47.42134
396.6381	43.05865
396.8045	41.54119
396.9708	42.18557
397.1371	43.85484
397.3034	51.25135
397.4697	60.17345
397.636	80.58249
397.8023	84.48115
397.9686	91.24118
398.1349	95.34491
398.3012	91.26514
398.4675	92.0815
398.6337	88.66534
398.8	91.62944
398.9662	98.22831
399.1325	103.1182
399.2988	106.8061
399.465	106.7559
399.6313	105.3146
399.7975	102.5982
399.9637	109.3726
400.1299	110.7946
400.2961	108.9102
400.4624	101.9504
400.6286	104.5513
400.7948	104.1516
400.961	107.4204
401.1272	115.3302
401.2934	113.5314
401.4595	114.175
401.6257	105.5472
401.7919	108.3627
401.9581	111.6252
402.1242	111.5204
402.2904	112.206
402.4565	116.0932
402.6227	118.2091
402.7888	116.9799
402.955	111.6746
403.1211	106.8157
403.2872	106.6639
403.4533	107.2924
403.6194	110.8301
403.7856	117.7077
403.9517	119.8517
404.1177	118.7214
404.2838	111.2349
404.4499	103.1157
404.616	100.9225
404.7821	109.9735
404.9482	114.4532
405.1142	116.5156
405.2803	118.2171
405.4464	116.1634
405.6124	115.8271
405.7784	111.7518
405.9445	113.603
406.1105	112.5912
406.2766	107.4861
406.4426	104.091
406.6086	111.963
406.7746	114.4677
406.9406	118.0505
407.1066	120.4912
407.2726	120.2525
407.4386	122.6823
407.6046	113.2361
407.7706	112.7121
407.9366	116.0893
408.1025	127.0822
408.2685	128.6053
408.4344	124.9025
408.6004	126.8514
408.7664	138.5997
408.9323	138.3227
409.0983	133.111
409.2642	133.8894
409.4301	129.2906
409.596	126.6844
409.762	123.2447
409.9279	115.016
410.0938	110.7699
410.2597	104.4422
410.4256	103.4595
410.5915	121.5634
410.7574	139.2555
410.9232	134.9214
411.0891	134.4855
411.255	136.1353
411.4209	139.855
411.5867	145.3869
411.7526	148.5836
411.9184	142.913
412.0843	137.2544
412.2501	140.8192
412.4159	146.0392
412.5818	135.441
412.7476	139.9782
412.9134	135.7229
413.0792	133.0717
413.245	130.2257
413.4108	134.1926
413.5766	133.9077
413.7424	143.5111
413.9082	145.6093
414.074	143.7639
414.2397	138.1909
414.4055	125.917
414.5713	128.6197
414.737	149.1505
414.9028	143.947
415.0685	139.2158
415.2343	140.9451
415.4	136.4482
415.5658	136.3625
415.7315	136.3308
415.8972	142.0293
416.0629	152.8215
416.2286	157.049
416.3943	151.5644
416.56	149.05
416.7257	152.9981
416.8914	149.6234
417.0571	146.3697
417.2228	136.4319
417.3884	139.7195
417.5541	137.4069
417.7198	139.3776
417.8854	144.6865
418.0511	144.1714
418.2167	144.7623
418.3824	146.2566
418.548	146.0013
418.7136	144.6002
418.8792	145.2464
419.0449	147.9182
419.2105	157.1254
419.3761	168.5515
419.5417	162.2707
419.7073	145.3443
419.8729	141.8005
420.0385	142.3324
420.204	149.3099
420.3696	147.0816
420.5352	162.2725
420.7007	165.5975
420.8663	168.6951
421.0319	166.7191
421.1974	163.416
421.3629	166.9504
421.5285	161.1871
421.694	159.4915
421.8595	164.4316
422.0251	166.0953
422.1906	169.1578
422.3561	159.7095
422.5216	143.2752
422.6871	133.8275
422.8526	145.3746
423.0181	156.1536
423.1835	168.3392
423.349	169.0617
423.5145	164.7725
423.68	163.4995
423.8454	160.6199
424.0109	160.8354
424.1763	163.2807
424.3418	170.1915
424.5072	172.3676
424.6726	165.2459
424.838	159.573
425.0035	155.2905
425.1689	156.0023
425.3343	162.9574
425.4997	166.7385
425.6651	169.1328
425.8305	159.88
425.9959	157.1215
426.1613	154.4986
426.3267	161.3564
426.492	179.347
426.6574	177.5936
426.8228	167.7451
426.9881	161.606
427.1534	142.2931
427.3188	145.8324
427.4841	149.1775
427.6495	154.9519
427.8148	171.3704
427.9801	170.8719
428.1454	167.0752
428.3107	167.9734
428.476	168.7557
428.6414	164.3148
428.8066	150.7854
428.9719	150.4644
429.1372	155.8247
429.3025	156.5208
429.4678	160.6262
429.633	147.613
429.7983	135.7975
429.9636	129.1001
430.1288	122.8818
430.294	118.166
430.4593	129.0915
430.6245	130.6314
430.7897	121.3391
430.955	117.5338
431.1202	121.8728
431.2854	131.2299
431.4506	160.1371
431.6158	183.6965
431.781	196.0592
431.9462	201.2122
432.1114	189.4333
432.2766	174.4799
432.4417	157.6456
432.6069	156.7888
432.772	168.9994
432.9372	181.6917
433.1024	203.7446
433.2675	197.7477
433.4326	192.8634
433.5977	188.5854
433.7629	175.5265
433.928	160.0372
434.0931	146.0316
434.2582	153.3925
434.4233	170.3576
434.5884	185.0147
434.7535	192.3084
434.9186	204.7361
435.0837	190.7705
435.2488	186.7246
435.4138	186.6673
435.5789	195.0077
435.744	203.9872
435.909	202.174
436.0741	197.2761
436.2391	210.011
436.4042	219.1663
436.5692	220.2467
436.7342	212.5476
436.8992	204.9929
437.0643	211.3343
437.2293	210.8384
437.3943	193.9446
437.5593	193.8277
437.7243	202.1272
437.8893	215.7565
438.0542	205.4953
438.2192	183.9057
438.3842	170.6018
438.5491	167.5186
438.7141	181.1603
438.8791	195.3006
439.044	201.1429
439.209	203.8604
439.3739	208.9506
439.5388	203.3564
439.7037	206.9928
439.8687	215.9584
440.0336	211.8241
440.1985	210.5966
440.3634	198.5711
440.5283	196.0273
440.6932	199.2124
440.8581	209.4987
441.0229	216.8204
441.1878	217.9461
441.3527	222.7416
441.5175	218.5047
441.6824	213.847
441.8472	221.1644
442.0121	230.6219
442.1769	234.6177
442.3418	228.3214
442.5066	224.2305
442.6714	225.3622
442.8362	233.6398
443.001	232.3925
443.1659	234.9692
443.3307	226.6692
443.4955	217.484
443.6602	227.9068
443.825	232.9687
443.9898	232.6574
444.1546	238.9482
444.3193	238.1796
444.4841	231.7177
444.6488	233.8459
444.8136	246.4473
444.9783	243.2924
445.1431	239.0228
445.3078	238.6579
445.4725	231.0585
445.6372	219.7252
445.802	209.2119
445.9667	216.9846
446.1314	216.9982
446.2961	231.3493
446.4608	228.9016
446.6255	235.4224
446.7901	234.9721
446.9548	239.2683
447.1195	241.5858
447.2841	250.0928
447.4488	258.7976
447.6134	253.7698
447.7781	262.5801
447.9427	247.873
448.1074	239.5682
448.272	238.8461
448.4366	241.8475
448.6012	254.0711
448.7658	256.5845
448.9305	249.5207
449.095	248.6391
449.2596	254.1348
449.4242	252.0987
449.5888	248.833
449.7534	259.525
449.9179	267.8442
450.0825	265.2638
450.2471	267.0816
450.4116	274.7209
450.5762	280.7738
450.7407	281.6148
450.9052	284.1214
451.0698	284.17
451.2343	278.7338
451.3988	270.1045
451.5633	269.2086
451.7278	274.3768
451.8923	272.0379
452.0568	276.0309
452.2213	273.4643
452.3858	269.063
452.5503	256.7037
452.7148	250.62
452.8792	247.087
453.0437	246.2628
453.2081	248.6033
453.3726	247.7269
453.537	251.3563
453.7015	255.1682
453.8659	264.7481
454.0303	277.2031
454.1947	274.305
454.3592	268.3463
454.5236	269.6865
454.688	270.4879
454.8524	264.7022
455.0168	257.9433
455.1811	260.4092
455.3455	263.4238
455.5099	258.6239
455.6743	272.0926
455.8386	273.8163
456.003	283.1582
456.1673	282.8354
456.3317	287.1454
456.496	280.0395
456.6603	278.131
456.8246	282.302
456.989	287.0831
457.1533	285.48
457.3176	281.4749
457.4819	294.0552
457.6462	288.3442
457.8105	280.1825
457.9748	274.3281
458.1391	272.1439
458.3033	272.6467
458.4676	271.285
458.6319	271.8141
458.7961	270.1126
458.9604	281.2753
459.1246	286.0099
459.2888	274.8535
459.4531	273.7997
459.6173	272.769
459.7815	269.6106
459.9457	274.0278
460.11	275.1299
460.2741	274.8165
460.4384	279.1711
460.6025	284.1062
460.7667	276.7465
460.9309	281.1663
461.0951	293.3153
461.2592	284.5532
461.4234	283.5232
461.5876	277.443
461.7517	280.9824
461.9159	285.0558
462.08	283.3864
462.2441	288.003
462.4082	292.4495
462.5724	291.2576
462.7365	290.9511
462.9006	291.6254
463.0647	292.4133
463.2288	299.9256
463.3929	293.2444
463.557	292.7253
463.721	295.1217
463.8851	288.7859
464.0492	285.2487
464.2132	289.5106
464.3773	287.9879
464.5414	285.4483
464.7054	278.4393
464.8694	277.711
465.0334	281.2667
465.1975	287.6923
465.3615	297.9792
465.5255	297.9654
465.6895	286.4713
465.8535	297.2006
466.0175	301.7059
466.1815	307.4389
466.3455	305.7693
466.5095	282.7701
466.6734	282.4432
466.8374	269.6138
467.0014	277.5818
467.1653	300.3558
467.3293	302.0692
467.4932	298.068
467.6571	303.8187
467.8211	312.2061
467.985	301.7951
468.1489	297.0736
468.3128	295.1091
468.4767	301.0639
468.6406	310.8731
468.8045	305.5603
468.9684	306.5821
469.1323	300.9456
469.2962	301.2977
469.46	301.3003
469.6239	306.852
469.7878	303.2799
469.9516	291.9686
470.1154	289.0847
470.2793	283.812
470.4431	283.9579
470.607	292.246
470.7708	294.5705
470.9346	293.1709
471.0984	294.0743
471.2622	301.3473
471.426	295.0226
471.5898	298.4906
471.7536	313.4549
471.9174	317.6897
472.0811	323.1919
472.2449	323.1579
472.4087	321.7285
472.5724	327.7883
472.7362	310.5215
472.8999	298.8655
473.0637	294.2422
473.2274	301.4121
473.3911	304.6361
473.5548	303.3078
473.7185	302.185
473.8822	311.2798
474.0459	316.5271
474.2096	321.1752
474.3733	319.9408
474.537	313.3227
474.7007	322.5197
474.8643	323.2565
475.028	315.3237
475.1917	317.8951
475.3553	309.333
475.519	305.251
475.6826	301.1373
475.8463	305.1048
476.0099	315.501
476.1735	304.647
476.3371	296.2339
476.5007	291.128
476.6643	299.7352
476.8279	303.5156
476.9915	304.0321
477.1551	312.0005
477.3187	317.6451
477.4823	318.2221
477.6458	324.6401
477.8094	323.454
477.9729	319.1622
478.1365	317.8533
478.3	313.0341
478.4636	304.1054
478.6271	295.9889
478.7906	305.9674
478.9541	310.0957
479.1176	314.3603
479.2812	309.5175
479.4447	320.2908
479.6082	335.0398
479.7716	321.3561
479.9351	314.4001
480.0986	314.2386
480.2621	307.2571
480.4255	314.7951
480.589	316.0155
480.7524	314.2616
480.9159	306.1747
481.0793	315.6654
481.2428	313.6932
481.4062	317.0206
481.5696	316.7654
481.733	321.5937
481.8964	320.4592
482.0598	320.3418
482.2232	314.9859
482.3866	308.9218
482.55	316.6939
482.7134	310.4387
482.8768	317.4877
483.0401	314.5916
483.2035	317.904
483.3668	306.4199
483.5302	307.6266
483.6935	319.1424
483.8568	320.3763
484.0202	306.3079
484.1835	302.7465
484.3468	312.3084
484.5101	314.6443
484.6734	316.7838
484.8367	326.1154
485	317.135
485.1633	312.8797
485.3266	312.8339
485.4899	299.7697
485.6531	285.7437
485.8164	273.9102
485.9796	253.4264
486.1429	233.019
486.3061	232.9611
486.4694	254.5595
486.6326	278.1472
486.7958	299.2421
486.959	305.941
487.1223	288.2419
487.2855	283.8718
487.4486	295.9019
487.6118	308.78
487.775	308.6858
487.9382	315.609
488.1014	323.2843
488.2646	320.8496
488.4277	312.2606
488.5909	300.8186
488.754	297.4047
488.9171	296.7258
489.0803	293.9313
489.2434	301.4974
489.4066	318.3864
489.5697	323.3634
489.7328	331.0568
489.8959	336.8266
490.059	331.7617
490.2221	320.5217
490.3852	326.0456
490.5482	318.7059
490.7113	327.9456
490.8744	322.3601
491.0374	320.5534
491.2005	314.5882
491.3636	319.8555
491.5266	325.6231
491.6896	326.7583
491.8527	298.9539
492.0157	292.6774
492.1787	293.6051
492.3417	290.3994
492.5047	303.9664
492.6677	326.7384
492.8307	319.8067
492.9937	328.4171
493.1567	331.2578
493.3196	337.7717
493.4826	325.8818
493.6456	314.0565
493.8085	308.3656
493.9715	304.4775
494.1344	313.2683
494.2974	334.9754
494.4603	327.3875
494.6232	328.3616
494.7861	333.8789
494.949	331.8006
495.1119	338.6026
495.2748	339.963
495.4377	331.9602
495.6006	320.0267
495.7635	313.9592
495.9264	317.0263
496.0892	319.9444
496.2521	327.9077
496.4149	336.5483
496.5778	328.8075
496.7407	316.4223
496.9035	321.7454
497.0663	326.2717
497.2291	332.8388
497.3919	331.4193
497.5547	334.2622
497.7176	340.6867
497.8804	334.1562
498.0432	321.164
498.2059	304.3936
498.3687	300.574
498.5315	296.6196
498.6942	308.3937
498.857	316.3786
499.0198	325.4767
499.1825	330.5654
499.3452	327.4319
499.508	325.4637
499.6707	341.9643
499.8334	328.8716
499.9962	329.6001
500.1589	326.1891
500.3216	323.427
500.4843	313.8156
500.6469	306.0805
500.8096	308.1995
500.9723	323.3688
501.135	329.1962
501.2976	315.0318
501.4603	308.9801
501.623	311.1752
501.7856	306.0703
501.9482	305.6664
502.1109	313.3099
502.2735	320.4804
502.4361	331.5703
502.5987	325.0008
502.7614	331.3536
502.924	326.8902
503.0865	332.745
503.2491	344.7537
503.4117	340.7021
503.5743	330.9251
503.7368	324.2795
503.8994	315.9122
504.062	306.7853
504.2245	311.1117
504.3871	315.4435
504.5496	333.4473
504.7121	341.8687
504.8746	338.6179
505.0372	333.5241
505.1997	322.2523
505.3622	330.0744
505.5247	340.3644
505.6872	344.5192
505.8497	351.636
506.0121	352.7841
506.1746	350.2777
506.3371	352.8083
506.4995	328.1173
506.662	327.0416
506.8244	333.4884
506.9869	336.0681
507.1493	337.1932
507.3117	342.5949
507.4742	343.9819
507.6366	338.2027
507.799	332.028
507.9614	325.69
508.1238	315.5984
508.2862	326.4993
508.4485	331.1568
508.6109	341.4094
508.7733	339.5746
508.9357	343.2466
509.098	344.6925
509.2604	346.1654
509.4227	343.6602
509.5851	335.4915
509.7474	322.9631
509.9097	318.7574
510.072	329.0313
510.2343	342.6802
510.3966	338.1461
510.5589	335.2903
510.7212	327.083
510.8835	333.6053
511.0458	334.0762
511.2081	333.587
511.3703	334.2617
511.5326	334.6319
511.6949	337.5889
511.8571	343.0272
512.0193	346.283
512.1816	338.8874
512.3438	326.5468
512.506	324.1631
512.6682	323.9472
512.8304	326.2309
512.9926	328.0027
513.1548	332.4313
513.317	334.3896
513.4792	323.3074
513.6414	314.6047
513.8035	320.2166
513.9657	308.9312
514.1279	308.8412
514.29	315.4085
514.4521	315.7266
514.6143	316.7245
514.7764	325.2326
514.9385	323.1539
515.1006	310.5552
515.2628	320.8058
515.4249	324.5074
515.587	317.5264
515.7491	322.456
515.9111	326.1223
516.0732	324.4817
516.2353	312.7174
