SPECTRUM DATA FILE
SpectrumCount:	1
PixelCount:	3648
UserName:	ToughBook User
SampleName:	
LightSource:	
Comments:	
DeviceName:	Qwave
DeviceManufacturer:	Broadcom
DeviceSerialNo:	11311

Name:	last spectrum
Date:	2024-05-02T15:21:57.0824100+02:00
ExposureTime:	0.02
TemporalAvg:	1
IntensityUnit:	normalizedCounts
CCDLoadLevel:	0.0770725
Temperature:	29.87341
DiagramColor:	200
ProcessingSteps:	335

Wavelength [nm]	Intensity1
334.421	14.85184
334.5891	14.02714
334.7573	14.34644
334.9254	14.67616
335.0935	17.56994
335.2616	18.06118
335.4297	22.47835
335.5978	18.59172
335.7659	16.80322
335.934	20.74282
336.1021	13.05596
336.2701	11.26152
336.4382	17.23202
336.6063	15.39571
336.7744	9.735999
336.9424	13.29275
337.1105	14.52554
337.2785	17.87683
337.4466	17.58005
337.6146	14.74807
337.7827	20.19496
337.9507	15.684
338.1187	14.21327
338.2867	18.27083
338.4548	19.26328
338.6228	17.94846
338.7908	17.346
338.9588	15.10575
339.1268	15.68225
339.2948	18.10182
339.4628	20.14728
339.6308	21.85577
339.7988	18.36094
339.9667	16.73253
340.1347	19.46099
340.3027	15.32612
340.4707	17.11323
340.6386	18.79268
340.8066	15.61652
340.9745	15.6772
341.1425	16.95525
341.3104	16.98869
341.4784	14.56974
341.6463	17.29303
341.8142	16.49346
341.9821	18.94102
342.1501	18.87263
342.318	15.18444
342.4859	18.80863
342.6538	23.36851
342.8217	18.33968
342.9896	20.97954
343.1575	21.25455
343.3254	21.2511
343.4933	20.96896
343.6612	21.8849
343.829	18.97639
343.9969	14.01239
344.1648	10.48233
344.3326	17.94241
344.5005	18.64846
344.6683	16.27772
344.8362	20.86713
345.004	20.66437
345.1719	20.9886
345.3397	21.99574
345.5075	21.12185
345.6754	23.04389
345.8432	15.68988
346.011	14.34792
346.1788	16.4193
346.3466	22.81401
346.5144	21.07126
346.6822	21.1453
346.85	19.71675
347.0178	15.2761
347.1856	15.95488
347.3534	21.15467
347.5211	17.60106
347.6889	15.19109
347.8567	17.37233
348.0244	17.78645
348.1922	16.52661
348.3599	16.30115
348.5277	17.16978
348.6954	17.40399
348.8632	13.00999
349.0309	19.94335
349.1986	14.10422
349.3663	19.24685
349.5341	19.36138
349.7018	20.84023
349.8695	23.40414
350.0372	21.79699
350.2049	24.09758
350.3726	24.30275
350.5403	24.65985
350.7079	27.37951
350.8756	25.32497
351.0433	20.20313
351.211	18.72562
351.3786	20.70871
351.5463	23.52152
351.714	25.66722
351.8816	26.54232
352.0493	21.83237
352.2169	21.44529
352.3846	23.93423
352.5522	17.73804
352.7198	17.91271
352.8875	19.27713
353.0551	26.24447
353.2227	25.35953
353.3903	21.8283
353.5579	22.3253
353.7255	27.87352
353.8931	24.29784
354.0607	25.36193
354.2283	29.28327
354.3958	27.17422
354.5634	25.82205
354.731	23.68325
354.8986	32.13088
355.0661	28.26665
355.2337	29.40239
355.4012	27.67924
355.5688	22.12329
355.7363	20.8921
355.9039	24.72066
356.0714	25.32388
356.239	25.2754
356.4065	26.12937
356.574	26.04755
356.7415	25.85629
356.909	25.38391
357.0765	22.03655
357.244	21.77597
357.4115	17.93031
357.579	20.97088
357.7465	20.04098
357.914	21.90277
358.0815	19.65486
358.249	21.45383
358.4164	16.36688
358.5839	20.49593
358.7513	16.37445
358.9188	20.49118
359.0862	21.10349
359.2537	24.65363
359.4211	31.17984
359.5886	30.47925
359.756	29.10993
359.9234	28.8117
360.0909	29.68639
360.2583	28.29865
360.4257	25.4809
360.5931	23.65002
360.7605	22.37153
360.9279	20.78404
361.0953	22.8784
361.2627	22.27863
361.4301	25.63791
361.5974	21.07329
361.7648	26.28396
361.9322	23.04268
362.0995	24.94917
362.2669	23.69641
362.4343	24.42629
362.6016	29.60001
362.769	31.10925
362.9363	29.71597
363.1036	27.08564
363.271	24.74878
363.4383	30.46062
363.6056	29.7161
363.7729	28.42552
363.9402	31.54703
364.1075	33.90985
364.2748	33.54496
364.4421	26.54849
364.6094	27.26672
364.7767	30.67623
364.944	30.96873
365.1113	26.98604
365.2786	32.99059
365.4458	36.16751
365.6131	37.42494
365.7803	37.16169
365.9476	40.23954
366.1148	41.20564
366.2821	40.72539
366.4493	33.81123
366.6166	34.31345
366.7838	36.59089
366.951	37.01336
367.1182	35.71667
367.2855	32.38295
367.4527	35.35528
367.6199	32.83466
367.7871	36.45779
367.9543	33.40808
368.1215	37.95271
368.2886	34.50449
368.4558	36.88375
368.623	33.99455
368.7902	35.41209
368.9573	34.82998
369.1245	38.05224
369.2917	42.56563
369.4588	42.29812
369.6259	34.54591
369.7931	37.9067
369.9602	41.16417
370.1274	37.73628
370.2945	35.85664
370.4616	36.083
370.6287	34.43387
370.7958	32.9997
370.963	33.33894
371.1301	38.67831
371.2971	41.26671
371.4643	42.31033
371.6313	43.21074
371.7984	38.2189
371.9655	35.57306
372.1326	31.58259
372.2997	35.18054
372.4667	36.30855
372.6338	42.48008
372.8008	42.2279
372.9679	40.5041
373.1349	34.67157
373.3019	37.27972
373.469	31.64519
373.636	26.44239
373.803	33.73751
373.9701	40.71563
374.1371	44.21346
374.3041	37.49165
374.4711	32.791
374.6381	28.7275
374.8051	28.34402
374.9721	36.19389
375.1391	36.92122
375.3061	41.15834
375.473	45.77816
375.64	41.61493
375.8069	40.06887
375.9739	38.5159
376.1409	46.60655
376.3078	43.05881
376.4748	39.02148
376.6417	38.73913
376.8087	42.26394
376.9756	40.04147
377.1425	44.38945
377.3094	48.20858
377.4763	54.60643
377.6432	52.17777
377.8102	55.95009
377.9771	57.06585
378.144	53.03016
378.3109	55.98643
378.4777	53.02715
378.6446	46.64005
378.8115	40.77494
378.9784	42.51056
379.1452	46.93534
379.3121	47.68583
379.4789	43.8542
379.6458	39.30401
379.8127	36.86071
379.9795	39.0901
380.1463	44.31894
380.3131	48.35205
380.48	53.00809
380.6468	50.51884
380.8136	48.16454
380.9804	50.92352
381.1472	47.62103
381.314	46.97165
381.4808	45.76505
381.6476	39.16708
381.8144	42.4467
381.9812	45.14274
382.148	42.85915
382.3147	34.91491
382.4815	38.72774
382.6483	38.20007
382.815	34.97747
382.9818	34.29337
383.1485	40.98152
383.3153	34.41726
383.482	32.93788
383.6487	29.95897
383.8155	36.04857
383.9822	34.14893
384.1489	37.62237
384.3156	43.60251
384.4823	54.62469
384.649	55.83071
384.8157	47.72675
384.9824	50.43688
385.1491	55.22858
385.3158	53.94608
385.4825	53.51881
385.6491	46.82499
385.8158	43.06223
385.9825	46.28981
386.1491	44.22861
386.3157	45.93112
386.4824	52.34874
386.649	52.51307
386.8157	53.26803
386.9823	45.40779
387.1489	46.30643
387.3156	52.35447
387.4821	50.37014
387.6488	45.0782
387.8154	48.29663
387.982	51.65424
388.1486	48.71609
388.3152	50.95061
388.4818	47.87962
388.6483	49.76859
388.8149	47.31876
388.9815	54.93798
389.148	58.64493
389.3146	62.12459
389.4811	58.25271
389.6477	66.60919
389.8142	62.87095
389.9808	67.88465
390.1473	62.96214
390.3138	59.99124
390.4804	60.62346
390.6469	58.11314
390.8134	67.32014
390.9799	68.00661
391.1464	71.47569
391.3129	70.74812
391.4794	74.40134
391.6459	71.1501
391.8124	63.68002
391.9789	62.73775
392.1453	59.38757
392.3118	61.88482
392.4782	61.02744
392.6447	53.56515
392.8112	44.13585
392.9776	42.40875
393.144	32.93855
393.3105	25.11032
393.4769	27.01403
393.6433	28.60302
393.8098	38.69021
393.9762	47.87809
394.1426	54.98275
394.309	58.1537
394.4754	56.46281
394.6418	64.4351
394.8082	68.73542
394.9746	68.37978
395.141	74.55238
395.3073	79.28847
395.4737	77.63009
395.64	83.88283
395.8064	79.30322
395.9728	71.13355
396.1391	59.03636
396.3055	49.3323
396.4718	47.18803
396.6381	45.73662
396.8045	34.37717
396.9708	38.04815
397.1371	45.88223
397.3034	52.1652
397.4697	59.8381
397.636	68.79288
397.8023	77.04278
397.9686	88.81142
398.1349	92.80962
398.3012	88.26886
398.4675	91.58502
398.6337	91.20927
398.8	94.70056
398.9662	98.8429
399.1325	101.8481
399.2988	99.74133
399.465	99.48518
399.6313	100.1875
399.7975	97.58131
399.9637	98.69465
400.1299	103.5393
400.2961	100.7733
400.4624	100.0906
400.6286	97.33314
400.7948	96.51761
400.961	102.3437
401.1272	109.4026
401.2934	107.1042
401.4595	102.594
401.6257	106.9528
401.7919	109.5857
401.9581	109.1292
402.1242	108.5203
402.2904	112.5364
402.4565	115.2308
402.6227	113.5629
402.7888	111.6667
402.955	113.8558
403.1211	104.8702
403.2872	96.78334
403.4533	100.6096
403.6194	104.7346
403.7856	113.1325
403.9517	116.1996
404.1177	110.5438
404.2838	107.542
404.4499	96.2987
404.616	101.3187
404.7821	105.5696
404.9482	106.9222
405.1142	121.544
405.2803	117.6967
405.4464	111.836
405.6124	110.3694
405.7784	108.1454
405.9445	112.0991
406.1105	109.471
406.2766	103.7599
406.4426	102.8288
406.6086	102.768
406.7746	111.9279
406.9406	116.6336
407.1066	116.0642
407.2726	117.9031
407.4386	119.9661
407.6046	116.51
407.7706	113.7257
407.9366	116.3414
408.1025	125.6319
408.2685	132.774
408.4344	127.2085
408.6004	125.5077
408.7664	129.9292
408.9323	134.1364
409.0983	130.9306
409.2642	129.8867
409.4301	131.2017
409.596	126.3477
409.762	119.2912
409.9279	109.2893
410.0938	104.9349
410.2597	103.9573
410.4256	109.3146
410.5915	120.5274
410.7574	125.5642
410.9232	123.9516
411.0891	122.9634
411.255	130.9948
411.4209	144.9964
411.5867	144.0781
411.7526	140.4272
411.9184	139.7035
412.0843	134.0531
412.2501	131.8247
412.4159	138.9198
412.5818	137.0922
412.7476	137.2054
412.9134	132.6198
413.0792	136.0815
413.245	128.9491
413.4108	131.2399
413.5766	134.3827
413.7424	137.8685
413.9082	145.485
414.074	148.3566
414.2397	143.4593
414.4055	132.4567
414.5713	133.3927
414.737	137.3127
414.9028	139.1713
415.0685	140.7393
415.2343	136.0502
415.4	128.1999
415.5658	137.5151
415.7315	134.4016
415.8972	136.6055
416.0629	143.401
416.2286	153.2278
416.3943	153.3807
416.56	155.0072
416.7257	147.6532
416.8914	149.1086
417.0571	143.3347
417.2228	143.6666
417.3884	134.6872
417.5541	132.2912
417.7198	147.9936
417.8854	147.3672
418.0511	145.7316
418.2167	143.9783
418.3824	147.9738
418.548	135.6608
418.7136	140.442
418.8792	139.5654
419.0449	146.3848
419.2105	152.22
419.3761	164.1433
419.5417	157.3333
419.7073	144.4716
419.8729	138.8185
420.0385	139.2484
420.204	141.3233
420.3696	148.0656
420.5352	156.5502
420.7007	166.8247
420.8663	164.6308
421.0319	161.313
421.1974	157.6377
421.3629	163.5531
421.5285	163.1498
421.694	157.6253
421.8595	154.6596
422.0251	168.314
422.1906	165.7735
422.3561	157.5514
422.5216	146.8282
422.6871	131.3978
422.8526	138.3782
423.0181	158.918
423.1835	163.0016
423.349	164.1148
423.5145	161.0043
423.68	155.8171
423.8454	155.3387
424.0109	156.9876
424.1763	167.2182
424.3418	165.0679
424.5072	164.0853
424.6726	167.6103
424.838	163.0766
425.0035	157.489
425.1689	157.0101
425.3343	160.4485
425.4997	163.6141
425.6651	165.713
425.8305	163.6238
425.9959	155.8353
426.1613	147.7196
426.3267	158.4199
426.492	173.0869
426.6574	178.9012
426.8228	168.2899
426.9881	161.0864
427.1534	144.3459
427.3188	139.3179
427.4841	143.5439
427.6495	158.8834
427.8148	172.9461
427.9801	171.0566
428.1454	167.4453
428.3107	172.2227
428.476	161.6703
428.6414	167.3748
428.8066	158.5796
428.9719	156.0596
429.1372	154.1633
429.3025	155.9488
429.4678	158.8198
429.633	155.736
429.7983	142.4795
429.9636	128.1533
430.1288	122.2432
430.294	116.3156
430.4593	128.6117
430.6245	122.5767
430.7897	116.283
430.955	118.8656
431.1202	118.4818
431.2854	133.5284
431.4506	152.5116
431.6158	179.4804
431.781	199.176
431.9462	199.9671
432.1114	195.8207
432.2766	176.9594
432.4417	156.1485
432.6069	149.4926
432.772	157.3569
432.9372	180.2406
433.1024	188.8997
433.2675	192.2852
433.4326	201.9382
433.5977	197.3124
433.7629	173.3949
433.928	155.9279
434.0931	143.6307
434.2582	155.4797
434.4233	173.3152
434.5884	186.4493
434.7535	198.633
434.9186	199.1387
435.0837	194.4021
435.2488	186.7888
435.4138	184.2336
435.5789	192.9852
435.744	204.0672
435.909	206.4675
436.0741	212.4828
436.2391	212.4821
436.4042	205.8561
436.5692	211.6978
436.7342	212.8333
436.8992	203.4706
437.0643	205.568
437.2293	208.6621
437.3943	197.6307
437.5593	195.292
437.7243	197.1332
437.8893	207.8533
438.0542	211.4093
438.2192	186.5426
438.3842	168.4086
438.5491	168.1992
438.7141	183.9694
438.8791	192.7904
439.044	195.5426
439.209	204.4456
439.3739	202.8294
439.5388	206.4288
439.7037	216.2732
439.8687	211.8016
440.0336	208.0542
440.1985	201.5248
440.3634	192.6275
440.5283	188.7702
440.6932	197.5089
440.8581	212.5406
441.0229	225.7014
441.1878	226.5018
441.3527	226.5288
441.5175	214.2254
441.6824	216.3239
441.8472	220.4056
442.0121	233.2935
442.1769	232.3781
442.3418	230.2988
442.5066	224.0516
442.6714	231.8054
442.8362	230.6158
443.001	226.8567
443.1659	222.5262
443.3307	228.3087
443.4955	212.0168
443.6602	218.3179
443.825	236.7833
443.9898	237.1159
444.1546	232.1816
444.3193	231.213
444.4841	233.1828
444.6488	241.1625
444.8136	239.5099
444.9783	237.0406
445.1431	242.3804
445.3078	237.506
445.4725	213.3947
445.6372	209.8325
445.802	213.995
445.9667	222.2519
446.1314	220.2535
446.2961	225.833
446.4608	236.1228
446.6255	241.3631
446.7901	237.2982
446.9548	235.5114
447.1195	242.9582
447.2841	249.6844
447.4488	259.3862
447.6134	265.5904
447.7781	263.9167
447.9427	252.1294
448.1074	240.3914
448.272	243.8439
448.4366	250.6927
448.6012	253.9768
448.7658	262.8942
448.9305	259.0968
449.095	254.4342
449.2596	252.2175
449.4242	252.8538
449.5888	250.2953
449.7534	258.7628
449.9179	268.413
450.0825	272.4057
450.2471	273.5187
450.4116	275.9827
450.5762	282.1202
450.7407	285.2569
450.9052	284.9919
451.0698	287.0052
451.2343	275.7991
451.3988	276.2267
451.5633	279.6778
451.7278	273.9236
451.8923	278.986
452.0568	279.6496
452.2213	268.2162
452.3858	272.2548
452.5503	267.8001
452.7148	253.1205
452.8792	246.7138
453.0437	246.5476
453.2081	249.2645
453.3726	260.5581
453.537	258.5323
453.7015	268.6661
453.8659	275.3435
454.0303	279.9347
454.1947	276.132
454.3592	275.3816
454.5236	275.7896
454.688	270.7733
454.8524	262.4475
455.0168	261.3795
455.1811	264.0192
455.3455	272.899
455.5099	271.7394
455.6743	269.7839
455.8386	271.0836
456.003	281.3155
456.1673	280.0056
456.3317	270.5983
456.496	272.8797
456.6603	274.5676
456.8246	276.6548
456.989	278.5869
457.1533	278.7742
457.3176	276.5538
457.4819	289.5356
457.6462	287.023
457.8105	286.3052
457.9748	288.2649
458.1391	269.1552
458.3033	266.3766
458.4676	273.209
458.6319	270.6912
458.7961	274.8857
458.9604	285.7667
459.1246	289.8487
459.2888	278.2735
459.4531	268.4238
459.6173	274.8173
459.7815	271.9551
459.9457	274.1897
460.11	276.4615
460.2741	278.3711
460.4384	285.1352
460.6025	281.0534
460.7667	281.2417
460.9309	291.5018
461.0951	285.705
461.2592	288.6062
461.4234	285.7618
461.5876	290.2484
461.7517	286.8521
461.9159	285.9849
462.08	290.5913
462.2441	286.5589
462.4082	287.187
462.5724	291.2881
462.7365	293.7074
462.9006	289.5944
463.0647	299.7859
463.2288	300.5216
463.3929	293.6467
463.557	289.205
463.721	283.9498
463.8851	286.6595
464.0492	290.2166
464.2132	289.2171
464.3773	290.5797
464.5414	278.4388
464.7054	275.961
464.8694	277.4968
465.0334	277.6119
465.1975	291.9924
465.3615	298.1002
465.5255	291.0463
465.6895	290.339
465.8535	304.6418
466.0175	310.8241
466.1815	307.3883
466.3455	300.6801
466.5095	292.0131
466.6734	279.1473
466.8374	272.9816
467.0014	277.9
467.1653	286.8813
467.3293	294.0914
467.4932	298.7727
467.6571	294.144
467.8211	301.7875
467.985	295.1947
468.1489	292.122
468.3128	297.0233
468.4767	302.8883
468.6406	304.4747
468.8045	302.772
468.9684	307.2943
469.1323	302.9149
469.2962	308.0047
469.46	310.6935
469.6239	316.4568
469.7878	309.3499
469.9516	297.7047
470.1154	295.5555
470.2793	293.1782
470.4431	288.8232
470.607	290.3364
470.7708	292.093
470.9346	294.9547
471.0984	298.1097
471.2622	296.6917
471.426	305.7957
471.5898	299.1065
471.7536	302.8934
471.9174	308.8743
472.0811	321.3427
472.2449	321.0233
472.4087	320.1966
472.5724	322.1077
472.7362	318.1647
472.8999	302.0352
473.0637	298.8318
473.2274	303.2546
473.3911	306.5857
473.5548	304.2393
473.7185	302.6972
473.8822	308.6105
474.0459	303.7377
474.2096	306.641
474.3733	307.4706
474.537	311.1874
474.7007	319.7431
474.8643	314.9183
475.028	311.2049
475.1917	322.4746
475.3553	310.7993
475.519	300.4636
475.6826	294.3486
475.8463	303.4964
476.0099	305.4872
476.1735	305.9094
476.3371	300.512
476.5007	295.762
476.6643	299.0565
476.8279	295.2975
476.9915	309.35
477.1551	311.4355
477.3187	313.2648
477.4823	313.6928
477.6458	316.3196
477.8094	321.8953
477.9729	327.6954
478.1365	327.1983
478.3	310.1456
478.4636	307.9861
478.6271	303.2328
478.7906	305.5464
478.9541	309.2885
479.1176	313.121
479.2812	316.6662
479.4447	318.76
479.6082	326.224
479.7716	328.4917
479.9351	311.0981
480.0986	302.585
480.2621	312.2778
480.4255	317.9108
480.589	318.3498
480.7524	311.1434
480.9159	311.2935
481.0793	308.6289
481.2428	314.6163
481.4062	325.1122
481.5696	316.3981
481.733	324.1588
481.8964	325.8016
482.0598	323.8018
482.2232	314.1178
482.3866	312.8113
482.55	315.196
482.7134	322.0528
482.8768	311.8919
483.0401	313.426
483.2035	312.213
483.3668	319.9709
483.5302	320.6876
483.6935	312.5479
483.8568	318.1871
484.0202	316.1484
484.1835	309.5669
484.3468	310.7484
484.5101	314.6488
484.6734	317.8991
484.8367	318.1163
485	312.277
485.1633	313.297
485.3266	303.357
485.4899	301.6363
485.6531	294.9738
485.8164	271.0406
485.9796	252.0644
486.1429	232.1462
486.3061	232.8036
486.4694	254.0671
486.6326	274.3801
486.7958	297.6624
486.959	288.8593
487.1223	276.851
487.2855	281.9181
487.4486	289.1875
487.6118	296.8258
487.775	301.2519
487.9382	312.2146
488.1014	319.8902
488.2646	322.2317
488.4277	314.4245
488.5909	310.6243
488.754	308.6399
488.9171	296.8089
489.0803	290.2274
489.2434	296.1419
489.4066	310.4647
489.5697	331.2282
489.7328	340.9032
489.8959	333.6796
490.059	322.7822
490.2221	319.5694
490.3852	319.4543
490.5482	325.5348
490.7113	325.8419
490.8744	314.4987
491.0374	305.1838
491.2005	306.5534
491.3636	311.0849
491.5266	326.4755
491.6896	327.3289
491.8527	307.6317
492.0157	279.043
492.1787	276.6566
492.3417	295.3907
492.5047	304.2745
492.6677	316.7446
492.8307	318.2627
492.9937	324.7321
493.1567	331.0464
493.3196	320.2597
493.4826	312.9437
493.6456	308.8785
493.8085	303.0954
493.9715	298.4308
494.1344	312.7159
494.2974	326.0496
494.4603	334.6452
494.6232	335.1385
494.7861	331.4625
494.949	329.2618
495.1119	327.9838
495.2748	328.4028
495.4377	325.9666
495.6006	319.2633
495.7635	294.809
495.9264	300.6429
496.0892	318.2467
496.2521	330.3555
496.4149	332.5775
496.5778	326.9172
496.7407	320.5523
496.9035	316.0705
497.0663	322.2931
497.2291	321.5013
497.3919	329.206
497.5547	342.195
497.7176	328.2759
497.8804	324.8996
498.0432	320.8383
498.2059	309.3223
498.3687	293.4918
498.5315	289.666
498.6942	302.6328
498.857	332.6365
499.0198	328.4638
499.1825	324.9543
499.3452	326.5149
499.508	331.1319
499.6707	336.9799
499.8334	337.1734
499.9962	325.3391
500.1589	323.5959
500.3216	320.4398
500.4843	308.6895
500.6469	301.2501
500.8096	313.7623
500.9723	323.8812
501.135	327.1642
501.2976	314.038
501.4603	305.9599
501.623	311.1799
501.7856	310.5211
501.9482	310.0247
502.1109	317.6771
502.2735	325.0523
502.4361	325.3607
502.5987	325.3893
502.7614	326.8893
502.924	325.1471
503.0865	327.0902
503.2491	334.866
503.4117	340.343
503.5743	329.1112
503.7368	322.0947
503.8994	319.1388
504.062	309.0929
504.2245	298.3026
504.3871	312.4175
504.5496	337.7504
504.7121	346.7122
504.8746	334.5731
505.0372	325.46
505.1997	323.2072
505.3622	328.7065
505.5247	333.2556
505.6872	348.5823
505.8497	353.7209
506.0121	351.3814
506.1746	351.0468
506.3371	342.8468
506.4995	334.5931
506.662	334.9761
506.8244	339.1165
506.9869	338.1983
507.1493	334.7149
507.3117	331.3804
507.4742	335.3981
507.6366	335.6318
507.799	335.4774
507.9614	324.5071
508.1238	321.3058
508.2862	312.2048
508.4485	322.1944
508.6109	339.5772
508.7733	332.6003
508.9357	337.4469
509.098	347.3662
509.2604	345.9879
509.4227	351.467
509.5851	344.0465
509.7474	335.8234
509.9097	325.0079
510.072	326.5314
510.2343	341.5214
510.3966	342.1889
510.5589	333.0645
510.7212	331.8031
510.8835	332.8873
511.0458	321.4626
511.2081	336.0079
511.3703	348.2511
511.5326	339.7848
511.6949	342.4053
511.8571	337.4271
512.0193	338.5929
512.1816	337.1213
512.3438	321.9842
512.506	314.6309
512.6682	316.8329
512.8304	315.8594
512.9926	316.0702
513.1548	319.3133
513.317	323.3048
513.4792	329.5766
513.6414	325.6443
513.8035	310.9981
513.9657	300.0439
514.1279	299.7429
514.29	301.9781
514.4521	313.7075
514.6143	318.6787
514.7764	316.3485
514.9385	320.8349
515.1006	325.502
515.2628	321.8683
515.4249	320.1716
515.587	330.0205
515.7491	327.9011
515.9111	320.2702
516.0732	326.3278
516.2353	316.5547
