SPECTRUM DATA FILE
SpectrumCount:	1
PixelCount:	3648
UserName:	ToughBook User
SampleName:	
LightSource:	
Comments:	
DeviceName:	Qwave
DeviceManufacturer:	Broadcom
DeviceSerialNo:	11311

Name:	last spectrum
Date:	2024-05-02T15:23:20.9033321+02:00
ExposureTime:	0.02
TemporalAvg:	1
IntensityUnit:	normalizedCounts
CCDLoadLevel:	0.07347133
Temperature:	29.98056
DiagramColor:	200
ProcessingSteps:	335

Wavelength [nm]	Intensity1
334.421	18.14495
334.5891	19.05444
334.7573	13.69247
334.9254	16.37869
335.0935	15.61399
335.2616	15.63254
335.4297	22.0067
335.5978	23.02471
335.7659	15.83933
335.934	12.60543
336.1021	21.13032
336.2701	18.27008
336.4382	17.91556
336.6063	13.71821
336.7744	10.9503
336.9424	19.71894
337.1105	13.2194
337.2785	17.56957
337.4466	17.81142
337.6146	15.87889
337.7827	16.63558
337.9507	14.57922
338.1187	17.20805
338.2867	20.78681
338.4548	20.47364
338.6228	19.87813
338.7908	17.97145
338.9588	21.03997
339.1268	15.67182
339.2948	18.5709
339.4628	16.04492
339.6308	19.61474
339.7988	20.88656
339.9667	16.52384
340.1347	19.71255
340.3027	17.56063
340.4707	12.39831
340.6386	18.73162
340.8066	14.16622
340.9745	18.62006
341.1425	21.54744
341.3104	20.28869
341.4784	19.20686
341.6463	20.75999
341.8142	22.74358
341.9821	20.22652
342.1501	20.64559
342.318	19.1021
342.4859	20.18854
342.6538	19.66243
342.8217	23.96164
342.9896	18.36094
343.1575	17.07417
343.3254	18.02453
343.4933	19.73246
343.6612	19.97063
343.829	19.11222
343.9969	18.31464
344.1648	18.67999
344.3326	17.92921
344.5005	19.62226
344.6683	21.37131
344.8362	20.25741
345.004	23.20752
345.1719	22.87792
345.3397	22.65781
345.5075	19.70248
345.6754	19.41156
345.8432	18.83447
346.011	18.24346
346.1788	20.5299
346.3466	22.91239
346.5144	21.24121
346.6822	25.43081
346.85	23.32754
347.0178	25.07466
347.1856	18.36812
347.3534	19.80574
347.5211	22.42416
347.6889	21.94069
347.8567	20.49636
348.0244	21.98582
348.1922	23.02756
348.3599	20.03705
348.5277	18.79315
348.6954	19.28748
348.8632	24.65542
349.0309	23.6952
349.1986	16.57336
349.3663	20.20906
349.5341	17.63019
349.7018	22.43161
349.8695	21.31451
350.0372	24.61128
350.2049	26.84361
350.3726	29.21862
350.5403	28.4559
350.7079	25.68526
350.8756	25.53662
351.0433	19.81944
351.211	19.93636
351.3786	22.15425
351.5463	21.63536
351.714	23.78596
351.8816	26.66552
352.0493	22.07129
352.2169	23.29479
352.3846	21.45862
352.5522	22.2677
352.7198	22.4413
352.8875	26.24913
353.0551	24.66662
353.2227	20.90179
353.3903	25.56146
353.5579	26.33098
353.7255	28.04326
353.8931	29.1491
354.0607	31.52607
354.2283	23.24842
354.3958	25.09775
354.5634	24.57103
354.731	21.44914
354.8986	31.82958
355.0661	26.4426
355.2337	31.54107
355.4012	28.71331
355.5688	28.75399
355.7363	24.50337
355.9039	22.95668
356.0714	27.1662
356.239	24.32971
356.4065	23.07103
356.574	23.99487
356.7415	23.79177
356.909	28.88937
357.0765	25.44423
357.244	25.51178
357.4115	25.83265
357.579	28.4162
357.7465	24.521
357.914	24.76913
358.0815	19.85521
358.249	24.37086
358.4164	22.6386
358.5839	18.91952
358.7513	20.77678
358.9188	26.13212
359.0862	26.1218
359.2537	25.75845
359.4211	33.66786
359.5886	30.48426
359.756	31.04186
359.9234	34.57494
360.0909	33.85597
360.2583	28.28943
360.4257	31.61026
360.5931	27.24057
360.7605	24.37238
360.9279	27.75115
361.0953	27.18821
361.2627	30.57106
361.4301	31.62892
361.5974	28.49978
361.7648	27.28813
361.9322	29.80193
362.0995	30.58771
362.2669	33.89616
362.4343	33.17788
362.6016	32.89313
362.769	32.50316
362.9363	28.41876
363.1036	26.93998
363.271	26.98135
363.4383	28.17965
363.6056	29.55383
363.7729	32.30562
363.9402	37.70592
364.1075	37.22293
364.2748	38.27776
364.4421	29.44724
364.6094	27.14826
364.7767	33.97015
364.944	30.18576
365.1113	32.39906
365.2786	28.56237
365.4458	36.10787
365.6131	38.35738
365.7803	38.95229
365.9476	40.38322
366.1148	44.21413
366.2821	41.42186
366.4493	38.77134
366.6166	33.98816
366.7838	40.4912
366.951	36.68483
367.1182	35.85562
367.2855	37.94817
367.4527	37.47536
367.6199	36.68901
367.7871	30.93182
367.9543	33.73151
368.1215	38.17872
368.2886	35.33572
368.4558	37.62391
368.623	32.85413
368.7902	36.77972
368.9573	36.15085
369.1245	37.90132
369.2917	40.01868
369.4588	44.4981
369.6259	39.53641
369.7931	39.23001
369.9602	40.58908
370.1274	39.70051
370.2945	38.36666
370.4616	37.25379
370.6287	32.78603
370.7958	33.56396
370.963	37.15471
371.1301	44.54356
371.2971	43.6752
371.4643	48.09397
371.6313	40.49969
371.7984	43.65056
371.9655	34.77799
372.1326	31.04365
372.2997	33.75529
372.4667	34.75254
372.6338	40.16352
372.8008	42.50131
372.9679	43.94645
373.1349	35.62331
373.3019	36.82518
373.469	33.25298
373.636	30.76224
373.803	30.26458
373.9701	37.72446
374.1371	36.84514
374.3041	39.32913
374.4711	36.24999
374.6381	26.86469
374.8051	33.12528
374.9721	33.24743
375.1391	41.39853
375.3061	45.76111
375.473	51.51403
375.64	49.66263
375.8069	45.17382
375.9739	48.75379
376.1409	47.4318
376.3078	42.14302
376.4748	43.42776
376.6417	45.86994
376.8087	43.53148
376.9756	44.83985
377.1425	54.13055
377.3094	57.79345
377.4763	53.17747
377.6432	48.87739
377.8102	53.15151
377.9771	59.84007
378.144	58.02079
378.3109	59.14022
378.4777	57.55019
378.6446	54.94561
378.8115	47.86545
378.9784	47.66206
379.1452	45.81417
379.3121	44.83847
379.4789	47.58766
379.6458	41.35484
379.8127	42.79863
379.9795	44.39353
380.1463	52.59731
380.3131	57.46043
380.48	55.23384
380.6468	54.19473
380.8136	51.75574
380.9804	53.05055
381.1472	50.52718
381.314	49.66862
381.4808	43.9625
381.6476	46.02626
381.8144	44.99461
381.9812	42.35914
382.148	42.71369
382.3147	46.16167
382.4815	43.48927
382.6483	36.77278
382.815	44.01232
382.9818	37.27103
383.1485	39.00034
383.3153	39.83899
383.482	37.25977
383.6487	34.66694
383.8155	40.98388
383.9822	43.25758
384.1489	44.61998
384.3156	47.49696
384.4823	53.68645
384.649	57.0812
384.8157	52.38266
384.9824	53.02438
385.1491	54.45986
385.3158	55.31997
385.4825	48.34723
385.6491	48.96008
385.8158	45.89877
385.9825	43.09494
386.1491	48.2651
386.3157	54.63729
386.4824	53.37109
386.649	55.48959
386.8157	55.85947
386.9823	48.89927
387.1489	50.97372
387.3156	50.38221
387.4821	55.14771
387.6488	49.70769
387.8154	53.82057
387.982	54.29826
388.1486	48.72041
388.3152	51.05185
388.4818	57.2337
388.6483	55.76402
388.8149	54.1949
388.9815	54.28546
389.148	63.367
389.3146	62.91044
389.4811	65.27997
389.6477	63.18739
389.8142	67.00139
389.9808	68.049
390.1473	68.04323
390.3138	64.40116
390.4804	58.18836
390.6469	60.51295
390.8134	65.552
390.9799	69.34175
391.1464	69.73936
391.3129	71.82986
391.4794	75.83916
391.6459	72.73963
391.8124	69.22031
391.9789	70.26354
392.1453	65.64989
392.3118	63.05066
392.4782	64.96729
392.6447	61.57926
392.8112	48.51068
392.9776	40.44352
393.144	33.05
393.3105	31.22162
393.4769	29.76247
393.6433	33.03765
393.8098	41.82293
393.9762	48.86094
394.1426	59.15992
394.309	54.97487
394.4754	65.06059
394.6418	63.27814
394.8082	68.68555
394.9746	74.35862
395.141	77.60394
395.3073	71.25191
395.4737	79.04632
395.64	77.19949
395.8064	78.5561
395.9728	70.64937
396.1391	70.0406
396.3055	61.01117
396.4718	50.1132
396.6381	38.87999
396.8045	34.5481
396.9708	37.23112
397.1371	43.14271
397.3034	51.77381
397.4697	61.13696
397.636	71.88059
397.8023	87.70915
397.9686	82.80539
398.1349	85.31879
398.3012	87.27769
398.4675	92.88641
398.6337	91.726
398.8	88.57555
398.9662	94.07613
399.1325	101.2771
399.2988	97.23206
399.465	100.1328
399.6313	102.7427
399.7975	99.21161
399.9637	102.5989
400.1299	103.6754
400.2961	97.77699
400.4624	89.20811
400.6286	91.135
400.7948	97.64989
400.961	100.5575
401.1272	107.5729
401.2934	106.7914
401.4595	111.9564
401.6257	111.0248
401.7919	112.6077
401.9581	111.9904
402.1242	105.8829
402.2904	108.4192
402.4565	110.0613
402.6227	104.358
402.7888	111.0638
402.955	108.3637
403.1211	99.305
403.2872	99.49186
403.4533	103.5088
403.6194	111.2592
403.7856	118.1239
403.9517	120.3263
404.1177	120.9339
404.2838	113.2662
404.4499	102.2764
404.616	91.88227
404.7821	101.5254
404.9482	114.8059
405.1142	119.7256
405.2803	115.6649
405.4464	116.2297
405.6124	104.0713
405.7784	108.5371
405.9445	110.7698
406.1105	109.0708
406.2766	101.3458
406.4426	99.56635
406.6086	102.2421
406.7746	117.5483
406.9406	116.2656
407.1066	118.3133
407.2726	110.0257
407.4386	112.3244
407.6046	116.8614
407.7706	115.7668
407.9366	107.1336
408.1025	114.1294
408.2685	125.0366
408.4344	127.7432
408.6004	123.3389
408.7664	133.3969
408.9323	139.9628
409.0983	134.5397
409.2642	130.7943
409.4301	130.2158
409.596	126.7213
409.762	119.2288
409.9279	114.0145
410.0938	103.4598
410.2597	100.7859
410.4256	111.0157
410.5915	127.674
410.7574	126.9891
410.9232	128.7611
411.0891	133.3455
411.255	135.656
411.4209	141.2158
411.5867	146.7415
411.7526	144.0117
411.9184	138.4516
412.0843	130.2922
412.2501	135.3464
412.4159	138.9256
412.5818	136.4427
412.7476	129.4873
412.9134	129.2439
413.0792	131.0831
413.245	124.8586
413.4108	128.3292
413.5766	137.4959
413.7424	144.6018
413.9082	152.5349
414.074	146.9371
414.2397	137.8377
414.4055	135.7162
414.5713	130.9553
414.737	139.9874
414.9028	141.222
415.0685	135.2521
415.2343	138.756
415.4	143.4969
415.5658	134.7583
415.7315	144.5588
415.8972	147.2976
416.0629	150.8165
416.2286	151.8134
416.3943	149.2284
416.56	150.072
416.7257	142.0959
416.8914	146.8825
417.0571	148.9291
417.2228	138.5384
417.3884	131.8881
417.5541	140.4453
417.7198	140.1946
417.8854	142.7016
418.0511	142.5059
418.2167	145.359
418.3824	144.4586
418.548	137.7605
418.7136	135.0857
418.8792	140.9795
419.0449	142.1524
419.2105	151.4389
419.3761	154.6253
419.5417	146.1086
419.7073	141.7389
419.8729	133.5987
420.0385	133.2897
420.204	139.9875
420.3696	151.5572
420.5352	159.5693
420.7007	157.838
420.8663	159.4414
421.0319	158.9546
421.1974	170.5881
421.3629	166.0518
421.5285	161.9282
421.694	149.5864
421.8595	158.8764
422.0251	161.8929
422.1906	169.9758
422.3561	156.9709
422.5216	138.3949
422.6871	130.8121
422.8526	140.9727
423.0181	157.5711
423.1835	161.8509
423.349	163.7957
423.5145	157.002
423.68	146.2373
423.8454	153.2065
424.0109	157.6279
424.1763	160.7615
424.3418	160.8549
424.5072	161.5711
424.6726	164.4762
424.838	153.555
425.0035	156.0461
425.1689	160.1894
425.3343	155.6448
425.4997	156.7753
425.6651	151.9832
425.8305	149.3266
425.9959	148.6224
426.1613	152.3285
426.3267	162.8953
426.492	170.3979
426.6574	165.8715
426.8228	162.3122
426.9881	153.3969
427.1534	144.4736
427.3188	143.815
427.4841	145.9132
427.6495	156.1473
427.8148	167.9561
427.9801	158.8526
428.1454	161.4033
428.3107	168.6166
428.476	165.8944
428.6414	155.7173
428.8066	152.6513
428.9719	144.303
429.1372	150.3715
429.3025	151.6604
429.4678	152.1761
429.633	150.437
429.7983	135.4286
429.9636	129.2133
430.1288	116.6004
430.294	118.7407
430.4593	128.6172
430.6245	122.2508
430.7897	115.8606
430.955	111.9761
431.1202	118.6781
431.2854	136.3432
431.4506	151.3983
431.6158	172.0312
431.781	191.0673
431.9462	194.8972
432.1114	182.2529
432.2766	173.6502
432.4417	147.5001
432.6069	147.6564
432.772	161.8974
432.9372	177.5646
433.1024	181.7901
433.2675	196.814
433.4326	200.091
433.5977	188.9166
433.7629	165.9197
433.928	145.5097
434.0931	144.0638
434.2582	159.7796
434.4233	162.9317
434.5884	177.5603
434.7535	191.3151
434.9186	196.381
435.0837	187.6875
435.2488	178.9856
435.4138	174.3396
435.5789	185.7345
435.744	194.3683
435.909	194.357
436.0741	194.8373
436.2391	204.2307
436.4042	214.2997
436.5692	216.6389
436.7342	209.6138
436.8992	200.5733
437.0643	197.363
437.2293	199.4472
437.3943	196.0324
437.5593	187.8045
437.7243	188.5011
437.8893	194.7251
438.0542	198.6198
438.2192	188.0872
438.3842	165.0771
438.5491	165.3978
438.7141	179.2727
438.8791	194.9017
439.044	192.513
439.209	197.0011
439.3739	198.491
439.5388	197.6076
439.7037	207.7323
439.8687	213.285
440.0336	201.4963
440.1985	201.92
440.3634	192.006
440.5283	190.4045
440.6932	190.2986
440.8581	200.2744
441.0229	218.6688
441.1878	219.364
441.3527	220.2518
441.5175	213.6004
441.6824	206.9039
441.8472	211.1828
442.0121	219.5822
442.1769	227.3392
442.3418	226.0932
442.5066	223.4422
442.6714	232.0711
442.8362	228.4822
443.001	216.5532
443.1659	223.9112
443.3307	218.6734
443.4955	213.6447
443.6602	212.6872
443.825	223.4931
443.9898	234.4579
444.1546	228.5946
444.3193	222.4137
444.4841	234.785
444.6488	230.1286
444.8136	231.7014
444.9783	233.0008
445.1431	235.3759
445.3078	233.8813
445.4725	222.2359
445.6372	212.3982
445.802	203.4892
445.9667	206.2197
446.1314	213.6352
446.2961	214.2872
446.4608	222.7939
446.6255	235.3893
446.7901	228.1787
446.9548	233.2901
447.1195	234.1739
447.2841	245.2979
447.4488	248.5413
447.6134	257.2862
447.7781	252.4093
447.9427	240.2104
448.1074	228.8336
448.272	231.4623
448.4366	238.3339
448.6012	245.9549
448.7658	243.2645
448.9305	245.8255
449.095	248.4476
449.2596	250.1902
449.4242	244.8143
449.5888	250.3413
449.7534	253.6462
449.9179	255.9506
450.0825	258.6089
450.2471	260.9439
450.4116	263.6289
450.5762	273.971
450.7407	271.2523
450.9052	266.1567
451.0698	273.56
451.2343	272.5327
451.3988	268.7309
451.5633	265.2151
451.7278	269.13
451.8923	260.0957
452.0568	261.2096
452.2213	271.1479
452.3858	263.0812
452.5503	255.5246
452.7148	248.3293
452.8792	239.0197
453.0437	234.7
453.2081	242.7206
453.3726	244.98
453.537	246.2021
453.7015	244.7769
453.8659	260.6553
454.0303	274.1803
454.1947	259.2934
454.3592	266.2634
454.5236	270.55
454.688	265.9361
454.8524	252.7907
455.0168	246.4553
455.1811	254.0917
455.3455	257.6007
455.5099	254.8002
455.6743	255.3309
455.8386	273.3464
456.003	280.4837
456.1673	280.5266
456.3317	270.6224
456.496	260.7159
456.6603	268.0373
456.8246	271.4991
456.989	274.3225
457.1533	273.6983
457.3176	262.812
457.4819	275.7623
457.6462	285.5901
457.8105	268.4842
457.9748	273.0901
458.1391	260.7424
458.3033	256.9333
458.4676	264.6225
458.6319	266.1226
458.7961	275.7657
458.9604	270.7126
459.1246	273.6192
459.2888	258.742
459.4531	259.2975
459.6173	263.583
459.7815	266.4912
459.9457	269.5494
460.11	269.2474
460.2741	267.3419
460.4384	272.6714
460.6025	269.3094
460.7667	274.976
460.9309	277.3642
461.0951	277.0142
461.2592	276.3117
461.4234	268.7025
461.5876	273.6268
461.7517	281.3514
461.9159	276.2211
462.08	287.3867
462.2441	291.3272
462.4082	280.4475
462.5724	276.0875
462.7365	276.7143
462.9006	274.84
463.0647	281.6161
463.2288	284.0637
463.3929	290.9621
463.557	278.9909
463.721	271.0395
463.8851	273.537
464.0492	276.8709
464.2132	283.0106
464.3773	280.7056
464.5414	274.2128
464.7054	266.9401
464.8694	260.4905
465.0334	269.163
465.1975	278.8928
465.3615	280.7875
465.5255	281.9291
465.6895	285.7709
465.8535	288.1007
466.0175	294.706
466.1815	299.4782
466.3455	281.4096
466.5095	277.488
466.6734	261.9774
466.8374	254.6601
467.0014	261.73
467.1653	279.7587
467.3293	288.4335
467.4932	286.7709
467.6571	283.629
467.8211	283.7381
467.985	278.3431
468.1489	282.1895
468.3128	289.5
468.4767	290.1589
468.6406	285.152
468.8045	288.5032
468.9684	286.7485
469.1323	279.4427
469.2962	289.6507
469.46	296.394
469.6239	299.4508
469.7878	299.2531
469.9516	287.4351
470.1154	282.4812
470.2793	276.8283
470.4431	277.9893
470.607	279.5013
470.7708	278.1288
470.9346	278.8499
471.0984	284.123
471.2622	285.1075
471.426	289.6761
471.5898	288.7753
471.7536	298.4673
471.9174	302.5492
472.0811	307.0711
472.2449	301.6976
472.4087	307.6221
472.5724	304.4407
472.7362	288.4675
472.8999	289.4791
473.0637	287.6733
473.2274	293.7435
473.3911	290.9312
473.5548	294.5962
473.7185	291.4887
473.8822	294.3412
474.0459	296.9643
474.2096	303.5862
474.3733	298.3264
474.537	307.1091
474.7007	313.2681
474.8643	308.8803
475.028	301.5323
475.1917	304.2852
475.3553	301.3189
475.519	294.0242
475.6826	294.3861
475.8463	294.5445
476.0099	297.8387
476.1735	304.2508
476.3371	291.7456
476.5007	285.0738
476.6643	289.357
476.8279	288.593
476.9915	296.4175
477.1551	291.8512
477.3187	299.6357
477.4823	302.0967
477.6458	305.2183
477.8094	301.3112
477.9729	306.0208
478.1365	299.8848
478.3	294.2313
478.4636	298.6158
478.6271	292.8204
478.7906	286.3059
478.9541	290.4273
479.1176	301.3856
479.2812	304.0714
479.4447	309.5572
479.6082	316.4719
479.7716	308.4632
479.9351	295.7336
480.0986	292.1278
480.2621	295.4564
480.4255	305.8536
480.589	294.1215
480.7524	292.5463
480.9159	293.0312
481.0793	295.3006
481.2428	292.6494
481.4062	299.7493
481.5696	311.6152
481.733	313.3844
481.8964	317.6693
482.0598	304.1132
482.2232	316.1898
482.3866	303.2725
482.55	302.4102
482.7134	301.9346
482.8768	309.5097
483.0401	309.4842
483.2035	298.1562
483.3668	302.6217
483.5302	309.7856
483.6935	311.0488
483.8568	304.1068
484.0202	296.5225
484.1835	295.1071
484.3468	295.7228
484.5101	314.733
484.6734	315.294
484.8367	308.8111
485	303.7884
485.1633	303.5226
485.3266	293.5946
485.4899	287.2206
485.6531	280.5595
485.8164	267.381
485.9796	239.0687
486.1429	227.3036
486.3061	226.9012
486.4694	242.9928
486.6326	270.2646
486.7958	285.9243
486.959	283.4339
487.1223	273.3782
487.2855	271.8659
487.4486	276.7136
487.6118	293.6309
487.775	296.1274
487.9382	297.2016
488.1014	307.0136
488.2646	306.9712
488.4277	303.7541
488.5909	301.2383
488.754	295.4393
488.9171	283.527
489.0803	284.3952
489.2434	287.0111
489.4066	298.4097
489.5697	316.2388
489.7328	325.5832
489.8959	320.5104
490.059	318.6413
490.2221	311.8911
490.3852	301.2747
490.5482	313.7952
490.7113	320.0835
490.8744	304.9476
491.0374	300.1949
491.2005	292.1793
491.3636	304.4308
491.5266	309.684
491.6896	306.279
491.8527	288.0137
492.0157	266.6085
492.1787	268.2505
492.3417	284.8661
492.5047	294.8092
492.6677	306.8974
492.8307	310.1386
492.9937	315.3033
493.1567	316.8929
493.3196	310.7132
493.4826	299.3426
493.6456	298.179
493.8085	295.0964
493.9715	288.6482
494.1344	302.0976
494.2974	313.0913
494.4603	316.7752
494.6232	316.3157
494.7861	316.0239
494.949	324.9946
495.1119	318.7484
495.2748	314.3239
495.4377	311.8413
495.6006	301.1046
495.7635	291.9828
495.9264	296.1198
496.0892	303.5369
496.2521	320.4338
496.4149	323.8289
496.5778	312.5893
496.7407	315.3668
496.9035	309.6171
497.0663	313.8312
497.2291	313.5693
497.3919	310.4558
497.5547	314.7827
497.7176	323.1418
497.8804	314.5863
498.0432	303.4151
498.2059	300.3673
498.3687	288.744
498.5315	287.0112
498.6942	296.0865
498.857	312.7547
499.0198	319.0594
499.1825	308.1787
499.3452	314.3091
499.508	318.1587
499.6707	328.942
499.8334	310.7523
499.9962	307.898
500.1589	306.4352
500.3216	301.6289
500.4843	295.9495
500.6469	292.2484
500.8096	293.1163
500.9723	303.4544
501.135	305.7553
501.2976	300.0229
501.4603	301.5231
501.623	298.5275
501.7856	299.2781
501.9482	295.2591
502.1109	301.6532
502.2735	310.4966
502.4361	312.0826
502.5987	312.0532
502.7614	300.9624
502.924	312.7051
503.0865	321.6586
503.2491	333.4412
503.4117	326.6987
503.5743	319.2549
503.7368	311.4026
503.8994	296.6594
504.062	294.174
504.2245	296.3071
504.3871	312.9822
504.5496	327.5293
504.7121	332.1272
504.8746	323.5976
505.0372	314.5674
505.1997	312.5842
505.3622	327.4763
505.5247	330.8358
505.6872	338.0093
505.8497	335.2765
506.0121	337.6408
506.1746	336.9076
506.3371	331.7181
506.4995	324.9328
506.662	316.2608
506.8244	316.2713
506.9869	322.5475
507.1493	325.2565
507.3117	329.0363
507.4742	318.5013
507.6366	317.6409
507.799	321.2545
507.9614	312.1461
508.1238	303.3293
508.2862	308.0465
508.4485	313.7395
508.6109	317.3999
508.7733	330.724
508.9357	331.4321
509.098	323.6468
509.2604	332.1876
509.4227	326.4244
509.5851	332.3451
509.7474	323.0972
509.9097	305.3623
510.072	305.6687
510.2343	316.13
510.3966	321.2525
510.5589	322.9726
510.7212	318.0771
510.8835	308.4241
511.0458	312.4758
511.2081	308.1661
511.3703	320.8146
511.5326	326.7649
511.6949	320.8183
511.8571	319.1204
512.0193	324.0236
512.1816	323.6145
512.3438	312.4438
512.506	308.2959
512.6682	304.7364
512.8304	303.1798
512.9926	299.4371
513.1548	305.0514
513.317	310.5531
513.4792	308.5739
513.6414	307.3293
513.8035	310.7961
513.9657	293.9467
514.1279	291.1719
514.29	294.6937
514.4521	303.3001
514.6143	300.7194
514.7764	305.5463
514.9385	302.2169
515.1006	303.6841
515.2628	302.2168
515.4249	300.2104
515.587	306.6628
515.7491	319.3264
515.9111	312.037
516.0732	311.3036
516.2353	302.6786
