SPECTRUM DATA FILE
SpectrumCount:	1
PixelCount:	3648
UserName:	ToughBook User
SampleName:	
LightSource:	
Comments:	
DeviceName:	Qwave
DeviceManufacturer:	Broadcom
DeviceSerialNo:	11311

Name:	last spectrum
Date:	2024-05-02T15:22:51.7432567+02:00
ExposureTime:	0.02
TemporalAvg:	1
IntensityUnit:	normalizedCounts
CCDLoadLevel:	0.0748779
Temperature:	29.98056
DiagramColor:	200
ProcessingSteps:	335

Wavelength [nm]	Intensity1
334.421	13.80814
334.5891	18.60598
334.7573	16.52779
334.9254	15.48285
335.0935	19.54677
335.2616	22.10446
335.4297	18.59317
335.5978	16.33723
335.7659	16.29847
335.934	13.33539
336.1021	14.35703
336.2701	12.08489
336.4382	14.67991
336.6063	17.13402
336.7744	12.59579
336.9424	16.33762
337.1105	12.23577
337.2785	14.67855
337.4466	19.10432
337.6146	24.47537
337.7827	20.51783
337.9507	20.3997
338.1187	20.80673
338.2867	15.89326
338.4548	17.04591
338.6228	17.29766
338.7908	14.69354
338.9588	16.28257
339.1268	15.40785
339.2948	22.48043
339.4628	20.87354
339.6308	18.41882
339.7988	19.91279
339.9667	16.4313
340.1347	20.33804
340.3027	25.01371
340.4707	20.43199
340.6386	16.53867
340.8066	17.618
340.9745	20.0543
341.1425	17.63396
341.3104	18.69053
341.4784	19.93446
341.6463	18.65524
341.8142	22.0244
341.9821	23.39424
342.1501	16.47764
342.318	20.01849
342.4859	21.33774
342.6538	19.29764
342.8217	18.39076
342.9896	22.63424
343.1575	23.85603
343.3254	16.96713
343.4933	24.30905
343.6612	25.39022
343.829	20.73438
343.9969	15.37504
344.1648	16.97414
344.3326	18.10257
344.5005	17.80232
344.6683	15.63782
344.8362	19.77747
345.004	18.83177
345.1719	24.58439
345.3397	21.59661
345.5075	22.49048
345.6754	26.04653
345.8432	19.19489
346.011	15.09147
346.1788	25.1503
346.3466	23.41916
346.5144	17.28398
346.6822	23.74658
346.85	22.56035
347.0178	21.95772
347.1856	20.60694
347.3534	21.27879
347.5211	24.22752
347.6889	20.03
347.8567	21.44618
348.0244	20.45452
348.1922	20.72953
348.3599	18.03952
348.5277	19.20814
348.6954	23.39007
348.8632	20.7994
349.0309	17.63499
349.1986	18.59039
349.3663	22.43335
349.5341	19.89721
349.7018	19.66801
349.8695	23.11753
350.0372	26.00566
350.2049	27.2373
350.3726	26.63573
350.5403	25.90193
350.7079	23.75815
350.8756	22.43892
351.0433	21.4403
351.211	23.3419
351.3786	22.78352
351.5463	23.19239
351.714	22.77626
351.8816	21.33625
352.0493	28.01174
352.2169	23.71411
352.3846	21.29026
352.5522	22.07315
352.7198	23.42463
352.8875	23.50199
353.0551	33.2178
353.2227	26.25243
353.3903	25.07307
353.5579	29.02373
353.7255	25.44138
353.8931	26.02593
354.0607	25.00713
354.2283	30.5697
354.3958	31.25166
354.5634	32.26873
354.731	34.85566
354.8986	32.45922
355.0661	27.39228
355.2337	30.20909
355.4012	23.07339
355.5688	22.92799
355.7363	26.32743
355.9039	29.30945
356.0714	27.40807
356.239	31.65254
356.4065	26.85434
356.574	23.00603
356.7415	20.02425
356.909	23.49294
357.0765	19.55309
357.244	20.46038
357.4115	23.51685
357.579	22.99117
357.7465	24.50614
357.914	27.8636
358.0815	20.59729
358.249	17.63752
358.4164	20.75109
358.5839	21.29807
358.7513	21.7746
358.9188	25.17069
359.0862	29.08039
359.2537	32.3688
359.4211	30.8564
359.5886	32.1314
359.756	35.95712
359.9234	35.0578
360.0909	29.35759
360.2583	28.16181
360.4257	31.33462
360.5931	26.48343
360.7605	25.61122
360.9279	26.58155
361.0953	28.4938
361.2627	27.84897
361.4301	32.47519
361.5974	28.82592
361.7648	22.50925
361.9322	22.79423
362.0995	29.81048
362.2669	33.14383
362.4343	31.21354
362.6016	29.18363
362.769	32.86743
362.9363	36.93766
363.1036	28.37337
363.271	30.70551
363.4383	34.33062
363.6056	39.59485
363.7729	33.8473
363.9402	33.11094
364.1075	34.13651
364.2748	28.96465
364.4421	30.55608
364.6094	36.50314
364.7767	31.44881
364.944	24.53715
365.1113	36.6032
365.2786	37.22785
365.4458	31.05449
365.6131	34.02866
365.7803	37.69091
365.9476	35.09165
366.1148	36.06161
366.2821	38.04406
366.4493	36.92936
366.6166	38.57544
366.7838	40.27695
366.951	39.68969
367.1182	38.74345
367.2855	35.39056
367.4527	40.09772
367.6199	32.72873
367.7871	29.78913
367.9543	38.00718
368.1215	34.93228
368.2886	40.19102
368.4558	37.53178
368.623	36.98464
368.7902	36.11805
368.9573	37.05998
369.1245	43.10422
369.2917	45.06239
369.4588	41.88443
369.6259	40.6114
369.7931	43.55447
369.9602	46.32856
370.1274	44.78934
370.2945	40.82788
370.4616	36.29235
370.6287	39.39462
370.7958	36.11777
370.963	40.3842
371.1301	45.49842
371.2971	45.52466
371.4643	45.58693
371.6313	43.85969
371.7984	40.87173
371.9655	34.18744
372.1326	30.09002
372.2997	35.40887
372.4667	37.15306
372.6338	45.14343
372.8008	45.49312
372.9679	43.05176
373.1349	38.30895
373.3019	34.47867
373.469	31.38471
373.636	33.82608
373.803	39.11062
373.9701	42.0094
374.1371	42.19037
374.3041	43.12069
374.4711	35.88589
374.6381	34.95665
374.8051	29.91918
374.9721	32.69252
375.1391	36.0977
375.3061	42.13056
375.473	46.82134
375.64	46.36202
375.8069	45.08886
375.9739	38.264
376.1409	42.71802
376.3078	43.66774
376.4748	41.03899
376.6417	43.36799
376.8087	42.15146
376.9756	45.63334
377.1425	49.18319
377.3094	51.13914
377.4763	53.56807
377.6432	51.44255
377.8102	55.08789
377.9771	61.42197
378.144	53.3449
378.3109	58.29089
378.4777	50.09112
378.6446	48.93604
378.8115	45.90806
378.9784	45.86394
379.1452	48.19594
379.3121	46.19968
379.4789	44.64068
379.6458	43.68003
379.8127	47.69708
379.9795	47.46649
380.1463	50.72506
380.3131	55.28105
380.48	58.1534
380.6468	57.58556
380.8136	52.71015
380.9804	52.09596
381.1472	50.73365
381.314	51.11703
381.4808	50.72826
381.6476	48.90371
381.8144	46.27859
381.9812	44.45698
382.148	44.90248
382.3147	40.43709
382.4815	35.95217
382.6483	34.08851
382.815	35.82462
382.9818	36.1335
383.1485	37.50427
383.3153	38.4403
383.482	35.84578
383.6487	38.61347
383.8155	40.86032
383.9822	36.31166
384.1489	42.61496
384.3156	51.12092
384.4823	50.7684
384.649	56.76172
384.8157	57.57311
384.9824	50.80339
385.1491	53.52771
385.3158	56.99712
385.4825	55.38656
385.6491	49.51187
385.8158	48.86928
385.9825	46.86167
386.1491	45.11105
386.3157	45.91842
386.4824	54.36429
386.649	57.61361
386.8157	56.34716
386.9823	47.83437
387.1489	48.38597
387.3156	51.79411
387.4821	53.74208
387.6488	55.1303
387.8154	55.91874
387.982	48.52481
388.1486	52.16483
388.3152	52.59783
388.4818	53.49067
388.6483	49.02393
388.8149	49.97951
388.9815	54.33133
389.148	59.56797
389.3146	62.4161
389.4811	70.5818
389.6477	69.97356
389.8142	65.11519
389.9808	63.65956
390.1473	70.38911
390.3138	64.19979
390.4804	58.9154
390.6469	62.132
390.8134	64.73502
390.9799	65.27394
391.1464	72.57738
391.3129	72.98218
391.4794	71.094
391.6459	61.95374
391.8124	66.58791
391.9789	71.30512
392.1453	63.95108
392.3118	63.06862
392.4782	63.36993
392.6447	56.09738
392.8112	49.15443
392.9776	42.3068
393.144	36.68767
393.3105	29.11726
393.4769	31.09984
393.6433	35.56596
393.8098	42.06826
393.9762	45.1431
394.1426	54.81802
394.309	62.4307
394.4754	62.62922
394.6418	66.26739
394.8082	79.03913
394.9746	77.67189
395.141	81.44905
395.3073	77.84468
395.4737	82.54523
395.64	79.25359
395.8064	82.65546
395.9728	69.6646
396.1391	68.64114
396.3055	59.99137
396.4718	56.11946
396.6381	44.8303
396.8045	30.04326
396.9708	36.78955
397.1371	43.96708
397.3034	49.21161
397.4697	60.03873
397.636	67.01269
397.8023	85.83994
397.9686	92.11053
398.1349	88.87696
398.3012	88.29987
398.4675	90.15843
398.6337	90.37376
398.8	97.60684
398.9662	98.97741
399.1325	98.60989
399.2988	103.2122
399.465	100.1031
399.6313	98.98949
399.7975	96.28243
399.9637	101.0404
400.1299	101.9815
400.2961	104.7277
400.4624	103.5557
400.6286	94.72134
400.7948	92.48535
400.961	102.7089
401.1272	106.7595
401.2934	107.1388
401.4595	108.3905
401.6257	107.7077
401.7919	106.8646
401.9581	108.0013
402.1242	111.0304
402.2904	109.5672
402.4565	114.7912
402.6227	112.3018
402.7888	118.8478
402.955	112.3861
403.1211	102.4689
403.2872	98.24411
403.4533	104.8503
403.6194	111.9565
403.7856	117.6595
403.9517	121.3276
404.1177	113.7317
404.2838	111.5533
404.4499	104.1152
404.616	97.26653
404.7821	105.7529
404.9482	117.6442
405.1142	121.4275
405.2803	110.8882
405.4464	120.0399
405.6124	109.9127
405.7784	109.2258
405.9445	115.6167
406.1105	112.0458
406.2766	106.9896
406.4426	105.4815
406.6086	107.3137
406.7746	110.5459
406.9406	122.0248
407.1066	117.0858
407.2726	114.2544
407.4386	113.8091
407.6046	113.9904
407.7706	108.9444
407.9366	109.3023
408.1025	117.2714
408.2685	122.7118
408.4344	130.41
408.6004	131.6023
408.7664	130.8424
408.9323	132.7933
409.0983	134.9802
409.2642	133.6068
409.4301	123.1622
409.596	122.9526
409.762	119.3663
409.9279	121.0033
410.0938	107.6729
410.2597	106.9096
410.4256	114.9512
410.5915	119.4839
410.7574	123.6138
410.9232	124.0267
411.0891	127.5538
411.255	129.0021
411.4209	137.8869
411.5867	143.8032
411.7526	136.7513
411.9184	136.4529
412.0843	133.8847
412.2501	132.8075
412.4159	137.3896
412.5818	134.6911
412.7476	131.7813
412.9134	130.1592
413.0792	132.0715
413.245	130.3681
413.4108	129.8679
413.5766	130.921
413.7424	143.7735
413.9082	140.3685
414.074	147.0729
414.2397	133.2038
414.4055	129.564
414.5713	134.5746
414.737	139.3622
414.9028	139.7164
415.0685	142.504
415.2343	134.9004
415.4	131.456
415.5658	132.3371
415.7315	139.167
415.8972	143.5697
416.0629	152.9865
416.2286	154.4527
416.3943	149.0069
416.56	148.3165
416.7257	147.601
416.8914	146.51
417.0571	138.5242
417.2228	138.2542
417.3884	135.7527
417.5541	135.5757
417.7198	145.0748
417.8854	142.2106
418.0511	141.0777
418.2167	142.7047
418.3824	142.475
418.548	140.6846
418.7136	135.9244
418.8792	140.583
419.0449	143.1498
419.2105	146.2318
419.3761	149.5382
419.5417	149.1182
419.7073	139.5295
419.8729	132.7268
420.0385	134.6508
420.204	134.3815
420.3696	152.3084
420.5352	157.8426
420.7007	156.8662
420.8663	157.694
421.0319	160.2553
421.1974	162.7567
421.3629	166.5237
421.5285	159.5495
421.694	147.7137
421.8595	158.2887
422.0251	165.3445
422.1906	165.2992
422.3561	161.9477
422.5216	137.7728
422.6871	125.9615
422.8526	139.8764
423.0181	155.0069
423.1835	163.7843
423.349	165.2681
423.5145	151.0808
423.68	148.4185
423.8454	151.3331
424.0109	153.9555
424.1763	160.0623
424.3418	169.2695
424.5072	171.3623
424.6726	161.3661
424.838	164.0171
425.0035	156.9856
425.1689	161.0379
425.3343	155.5735
425.4997	159.6333
425.6651	172.6774
425.8305	162.6014
425.9959	149.0314
426.1613	152.5116
426.3267	168.0593
426.492	174.6114
426.6574	172.1876
426.8228	171.0453
426.9881	155.5129
427.1534	142.8166
427.3188	137.6521
427.4841	149.3517
427.6495	153.7164
427.8148	163.0747
427.9801	163.8847
428.1454	161.205
428.3107	163.1944
428.476	166.5227
428.6414	160.0399
428.8066	158.4879
428.9719	148.6411
429.1372	149.3629
429.3025	153.6469
429.4678	152.3144
429.633	148.4641
429.7983	140.7883
429.9636	126.4626
430.1288	119.0327
430.294	118.677
430.4593	119.3812
430.6245	124.0594
430.7897	122.0805
430.955	116.0285
431.1202	123.6352
431.2854	132.7113
431.4506	154.8276
431.6158	180.3471
431.781	193.7708
431.9462	198.5768
432.1114	190.7541
432.2766	169.196
432.4417	156.8746
432.6069	150.0957
432.772	153.7769
432.9372	179.2699
433.1024	187.4368
433.2675	197.7177
433.4326	195.8637
433.5977	186.656
433.7629	177.4021
433.928	155.4729
434.0931	144.3214
434.2582	152.4163
434.4233	165.1152
434.5884	182.4404
434.7535	190.0082
434.9186	196.7682
435.0837	186.2526
435.2488	181.49
435.4138	185.0157
435.5789	188.0986
435.744	194.429
435.909	201.1143
436.0741	202.8083
436.2391	210.2621
436.4042	215.6247
436.5692	201.968
436.7342	207.4013
436.8992	197.2184
437.0643	197.4018
437.2293	200.5362
437.3943	202.0908
437.5593	193.2652
437.7243	197.6877
437.8893	203.7906
438.0542	202.2581
438.2192	190.2589
438.3842	173.2554
438.5491	162.7503
438.7141	181.9326
438.8791	193.5956
439.044	189.6618
439.209	193.3276
439.3739	205.1574
439.5388	210.1761
439.7037	207.3468
439.8687	209.6095
440.0336	208.3856
440.1985	198.3225
440.3634	188.3139
440.5283	185.5982
440.6932	197.2178
440.8581	207.0153
441.0229	213.8815
441.1878	234.3138
441.3527	230.9439
441.5175	210.6134
441.6824	213.1698
441.8472	219.6004
442.0121	226.4408
442.1769	234.1175
442.3418	226.9997
442.5066	223.8341
442.6714	220.9886
442.8362	223.3607
443.001	225.3524
443.1659	227.6985
443.3307	230.4287
443.4955	222.8889
443.6602	222.3015
443.825	227.4723
443.9898	230.9698
444.1546	229.2756
444.3193	225.8617
444.4841	241.9739
444.6488	236.9064
444.8136	235.2711
444.9783	241.0219
445.1431	236.6519
445.3078	230.658
445.4725	214.0334
445.6372	211.5294
445.802	208.8867
445.9667	208.0051
446.1314	219.4202
446.2961	225.6699
446.4608	239.9378
446.6255	234.4103
446.7901	231.6888
446.9548	228.199
447.1195	243.2074
447.2841	243.3698
447.4488	254.8575
447.6134	262.1917
447.7781	259.1648
447.9427	247.1101
448.1074	241.5837
448.272	237.984
448.4366	246.5889
448.6012	250.1282
448.7658	259.0473
448.9305	251.8705
449.095	245.3515
449.2596	242.7739
449.4242	244.3537
449.5888	248.4658
449.7534	251.37
449.9179	255.1968
450.0825	262.8452
450.2471	266.7686
450.4116	279.8928
450.5762	284.0674
450.7407	279.8818
450.9052	276.0339
451.0698	277.8442
451.2343	273.4972
451.3988	271.0725
451.5633	265.3136
451.7278	265.805
451.8923	269.8659
452.0568	274.773
452.2213	266.5316
452.3858	266.3182
452.5503	258.497
452.7148	247.123
452.8792	243.185
453.0437	242.8721
453.2081	244.0367
453.3726	250.2912
453.537	257.1779
453.7015	264.7686
453.8659	271.6944
454.0303	275.0684
454.1947	275.0269
454.3592	277.9996
454.5236	268.5058
454.688	261.0888
454.8524	254.1598
455.0168	255.0746
455.1811	250.2793
455.3455	263.0415
455.5099	264.9079
455.6743	257.8436
455.8386	269.4236
456.003	279.002
456.1673	280.4572
456.3317	282.3145
456.496	272.2879
456.6603	273.2076
456.8246	284.4238
456.989	284.5108
457.1533	276.7852
457.3176	274.8751
457.4819	275.2662
457.6462	284.4438
457.8105	288.2943
457.9748	275.78
458.1391	261.2814
458.3033	259.1034
458.4676	266.8105
458.6319	273.5
458.7961	276.6524
458.9604	282.0229
459.1246	276.7984
459.2888	265.4448
459.4531	270.8715
459.6173	270.0214
459.7815	261.3713
459.9457	268.6315
460.11	272.6969
460.2741	274.6521
460.4384	279.6302
460.6025	276.48
460.7667	283.2715
460.9309	283.7151
461.0951	281.8766
461.2592	280.3425
461.4234	283.6298
461.5876	277.5078
461.7517	277.9266
461.9159	286.0545
462.08	289.8068
462.2441	292.3965
462.4082	287.2893
462.5724	290.5414
462.7365	291.0167
462.9006	291.7009
463.0647	296.5004
463.2288	292.9115
463.3929	292.2766
463.557	290.0093
463.721	288.1854
463.8851	286.0268
464.0492	282.8432
464.2132	281.707
464.3773	288.0657
464.5414	287.997
464.7054	282.5833
464.8694	273.2106
465.0334	272.337
465.1975	281.0296
465.3615	287.7764
465.5255	290.1551
465.6895	286.3491
465.8535	295.4265
466.0175	292.4964
466.1815	299.3961
466.3455	298.6508
466.5095	280.9562
466.6734	274.2076
466.8374	264.4813
467.0014	274.3459
467.1653	286.6395
467.3293	289.889
467.4932	290.4168
467.6571	301.5667
467.8211	301.6086
467.985	297.3791
468.1489	289.0742
468.3128	294.0908
468.4767	298.0413
468.6406	304.4222
468.8045	292.8671
468.9684	299.5154
469.1323	291.13
469.2962	304.968
469.46	304.2171
469.6239	303.66
469.7878	301.6606
469.9516	292.9418
470.1154	285.9277
470.2793	280.4612
470.4431	282.9126
470.607	290.5038
470.7708	285.4674
470.9346	286.1905
471.0984	291.7448
471.2622	302.525
471.426	297.9567
471.5898	303.2925
471.7536	300.5241
471.9174	306.6959
472.0811	311.1371
472.2449	319.0724
472.4087	317.2105
472.5724	311.5171
472.7362	310.7008
472.8999	295.6222
473.0637	293.0066
473.2274	293.7307
473.3911	298.7016
473.5548	299.8432
473.7185	298.3248
473.8822	299.6215
474.0459	301.4491
474.2096	305.8368
474.3733	307.4078
474.537	304.6326
474.7007	308.4074
474.8643	307.6094
475.028	306.0275
475.1917	305.7778
475.3553	304.1616
475.519	306.3611
475.6826	307.0647
475.8463	301.9419
476.0099	305.088
476.1735	293.9124
476.3371	296.5858
476.5007	293.939
476.6643	298.3816
476.8279	298.7191
476.9915	295.7959
477.1551	304.2113
477.3187	307.8743
477.4823	311.8789
477.6458	316.3246
477.8094	313.8068
477.9729	314.7246
478.1365	316.8285
478.3	300.4256
478.4636	300.6852
478.6271	298.9406
478.7906	302.9902
478.9541	289.4644
479.1176	295.5226
479.2812	299.376
479.4447	320.944
479.6082	323.5993
479.7716	316.8371
479.9351	310.776
480.0986	310.7723
480.2621	314.2805
480.4255	309.7409
480.589	310.8507
480.7524	307.0008
480.9159	304.4201
481.0793	306.8668
481.2428	310.6098
481.4062	317.5624
481.5696	317.4323
481.733	318.8771
481.8964	316.195
482.0598	318.5979
482.2232	317.7431
482.3866	312.6275
482.55	314.2518
482.7134	321.1168
482.8768	321.7861
483.0401	308.858
483.2035	312.0013
483.3668	309.8916
483.5302	310.2438
483.6935	310.64
483.8568	316.0918
484.0202	301.326
484.1835	300.0221
484.3468	299.8841
484.5101	303.8386
484.6734	306.6386
484.8367	307.1893
485	309.9507
485.1633	311.5687
485.3266	304.85
485.4899	299.4884
485.6531	290.9758
485.8164	269.7987
485.9796	254.8677
486.1429	232.3312
486.3061	235.7958
486.4694	250.1355
486.6326	277.0447
486.7958	292.6945
486.959	289.5707
487.1223	281.5978
487.2855	277.7227
487.4486	277.8309
487.6118	299.5197
487.775	308.6359
487.9382	314.6016
488.1014	317.0192
488.2646	308.0123
488.4277	306.7711
488.5909	299.0313
488.754	297.2188
488.9171	288.3375
489.0803	284.5193
489.2434	289.9919
489.4066	310.535
489.5697	328.8653
489.7328	326.7381
489.8959	328.3834
490.059	324.3345
490.2221	316.0704
490.3852	315.9176
490.5482	321.2822
490.7113	324.4292
490.8744	313.83
491.0374	304.4407
491.2005	296.6346
491.3636	311.841
491.5266	319.0959
491.6896	310.8097
491.8527	291.5645
492.0157	281.536
492.1787	276.69
492.3417	282.6551
492.5047	305.4453
492.6677	314.9027
492.8307	313.7895
492.9937	317.2189
493.1567	320.5382
493.3196	315.692
493.4826	309.3961
493.6456	301.0335
493.8085	301.2586
493.9715	310.3624
494.1344	309.7933
494.2974	323.1311
494.4603	328.0824
494.6232	331.3053
494.7861	330.2813
494.949	338.906
495.1119	324.6656
495.2748	325.6989
495.4377	325.1968
495.6006	306.297
495.7635	300.1105
495.9264	303.206
496.0892	309.5714
496.2521	324.955
496.4149	332.4852
496.5778	323.7124
496.7407	311.7321
496.9035	317.211
497.0663	320.1027
497.2291	326.2292
497.3919	324.5452
497.5547	329.4346
497.7176	331.195
497.8804	329.1282
498.0432	321.3081
498.2059	311.3635
498.3687	294.4753
498.5315	292.9324
498.6942	306.4185
498.857	318.3446
499.0198	321.8232
499.1825	325.4196
499.3452	326.0108
499.508	322.715
499.6707	328.6543
499.8334	323.3563
499.9962	313.586
500.1589	313.1968
500.3216	302.0245
500.4843	298.5139
500.6469	305.3849
500.8096	308.7028
500.9723	315.2213
501.135	321.4264
501.2976	313.8939
501.4603	306.22
501.623	302.8274
501.7856	304.9128
501.9482	304.5537
502.1109	310.1231
502.2735	319.0683
502.4361	309.3719
502.5987	317.1731
502.7614	319.5556
502.924	319.7162
503.0865	327.1671
503.2491	333.7636
503.4117	341.2888
503.5743	322.2358
503.7368	313.8247
503.8994	312.1419
504.062	308.5447
504.2245	312.495
504.3871	314.476
504.5496	333.4747
504.7121	333.384
504.8746	319.1509
505.0372	323.4799
505.1997	330.5505
505.3622	331.6837
505.5247	333.5214
505.6872	334.0389
505.8497	345.0418
506.0121	344.0353
506.1746	339.152
506.3371	333.4583
506.4995	330.148
506.662	324.9189
506.8244	322.0593
506.9869	330.4646
507.1493	336.7412
507.3117	327.5782
507.4742	325.8724
507.6366	324.8839
507.799	322.807
507.9614	312.4843
508.1238	318.6282
508.2862	311.7269
508.4485	316.4764
508.6109	330.98
508.7733	337.9439
508.9357	338.8348
509.098	342.7208
509.2604	334.8464
509.4227	340.4331
509.5851	322.9301
509.7474	320.8076
509.9097	320.4396
510.072	323.0831
510.2343	323.8176
510.3966	333.2585
510.5589	330.8374
510.7212	327.5282
510.8835	320.9587
511.0458	316.9915
511.2081	326.0351
511.3703	338.5399
511.5326	340.0045
511.6949	340.0837
511.8571	336.2202
512.0193	329.5247
512.1816	330.0397
512.3438	317.3076
512.506	309.8473
512.6682	310.134
512.8304	311.774
512.9926	313.5522
513.1548	317.5097
513.317	318.4956
513.4792	315.4088
513.6414	320.2879
513.8035	306.6624
513.9657	297.2439
514.1279	308.3976
514.29	306.4609
514.4521	307.5936
514.6143	307.752
514.7764	311.3925
514.9385	319.0597
515.1006	316.3249
515.2628	311.3693
515.4249	316.4535
515.587	314.6068
515.7491	318.3989
515.9111	323.7578
516.0732	315.2588
516.2353	311.8996
516.3973	299.5772
516.5594	285.4298
