SPECTRUM DATA FILE
SpectrumCount:	1
PixelCount:	3648
UserName:	ToughBook User
SampleName:	
LightSource:	
Comments:	
DeviceName:	Qwave
DeviceManufacturer:	Broadcom
DeviceSerialNo:	11311

Name:	last spectrum
Date:	2024-05-02T15:22:31.2634057+02:00
ExposureTime:	0.02
TemporalAvg:	1
IntensityUnit:	normalizedCounts
CCDLoadLevel:	0.07674116
Temperature:	29.87341
DiagramColor:	200
ProcessingSteps:	335

Wavelength [nm]	Intensity1
334.421	10.96384
334.5891	14.89794
334.7573	16.6022
334.9254	19.15375
335.0935	17.39764
335.2616	10.97356
335.4297	16.65417
335.5978	18.36904
335.7659	15.96612
335.934	14.04313
336.1021	13.08016
336.2701	12.65883
336.4382	12.46448
336.6063	13.25521
336.7744	17.39048
336.9424	18.56826
337.1105	16.74837
337.2785	12.41381
337.4466	17.64203
337.6146	23.65394
337.7827	19.51617
337.9507	16.88631
338.1187	19.57973
338.2867	17.01575
338.4548	13.97329
338.6228	12.83166
338.7908	16.82127
338.9588	17.65662
339.1268	11.52367
339.2948	16.22558
339.4628	19.204
339.6308	19.35014
339.7988	12.67266
339.9667	20.02713
340.1347	21.70763
340.3027	20.60482
340.4707	24.69358
340.6386	20.14166
340.8066	19.25927
340.9745	19.50074
341.1425	19.41645
341.3104	21.02415
341.4784	15.95558
341.6463	18.37757
341.8142	19.69694
341.9821	23.15451
342.1501	12.81117
342.318	21.42799
342.4859	22.29763
342.6538	17.18056
342.8217	23.63983
342.9896	25.44697
343.1575	23.773
343.3254	26.84389
343.4933	24.96603
343.6612	20.41833
343.829	15.67029
343.9969	15.67214
344.1648	19.47071
344.3326	21.80722
344.5005	14.0272
344.6683	12.65946
344.8362	16.80589
345.004	16.46278
345.1719	20.77699
345.3397	21.85958
345.5075	19.11756
345.6754	21.81111
345.8432	19.15926
346.011	18.9111
346.1788	22.15575
346.3466	22.6331
346.5144	20.95675
346.6822	17.93313
346.85	24.66114
347.0178	19.40196
347.1856	18.15103
347.3534	19.52537
347.5211	18.38622
347.6889	17.80672
347.8567	17.58141
348.0244	17.67748
348.1922	18.71099
348.3599	20.44731
348.5277	18.63688
348.6954	17.12658
348.8632	16.23693
349.0309	22.24048
349.1986	17.4513
349.3663	20.29228
349.5341	26.05955
349.7018	20.58778
349.8695	22.87094
350.0372	24.3548
350.2049	23.1275
350.3726	25.53864
350.5403	24.18998
350.7079	24.1775
350.8756	28.404
351.0433	21.27377
351.211	25.05162
351.3786	20.34423
351.5463	22.47382
351.714	26.48488
351.8816	28.48282
352.0493	23.37596
352.2169	23.49364
352.3846	25.25911
352.5522	21.27666
352.7198	23.02873
352.8875	22.98813
353.0551	26.11384
353.2227	23.92635
353.3903	27.46649
353.5579	24.10665
353.7255	26.29952
353.8931	23.17898
354.0607	24.65764
354.2283	29.17852
354.3958	29.81596
354.5634	32.8955
354.731	30.62578
354.8986	27.64021
355.0661	24.13337
355.2337	24.86401
355.4012	26.68672
355.5688	24.61176
355.7363	24.33587
355.9039	25.84398
356.0714	29.1775
356.239	30.32713
356.4065	25.7333
356.574	20.83833
356.7415	19.76273
356.909	17.07742
357.0765	20.8945
357.244	20.8479
357.4115	27.44543
357.579	22.79197
357.7465	21.61052
357.914	19.93126
358.0815	19.95633
358.249	17.44829
358.4164	18.48732
358.5839	20.86195
358.7513	22.1889
358.9188	22.71443
359.0862	26.41563
359.2537	27.04765
359.4211	23.78446
359.5886	24.9996
359.756	30.6089
359.9234	32.33575
360.0909	33.73556
360.2583	26.50646
360.4257	29.43605
360.5931	25.88792
360.7605	26.4942
360.9279	25.06731
361.0953	28.09925
361.2627	26.13827
361.4301	25.5457
361.5974	25.97284
361.7648	26.91687
361.9322	22.56719
362.0995	24.4426
362.2669	27.69448
362.4343	30.77849
362.6016	34.2784
362.769	34.69258
362.9363	33.65055
363.1036	33.28138
363.271	26.23298
363.4383	32.58611
363.6056	31.26843
363.7729	31.13517
363.9402	36.28369
364.1075	35.70169
364.2748	27.17129
364.4421	30.07096
364.6094	32.64538
364.7767	37.10781
364.944	30.42691
365.1113	29.0144
365.2786	39.13787
365.4458	39.07852
365.6131	34.58036
365.7803	38.79227
365.9476	34.55249
366.1148	39.83251
366.2821	36.06214
366.4493	35.41714
366.6166	41.10955
366.7838	39.03927
366.951	35.15339
367.1182	39.49253
367.2855	38.82845
367.4527	36.88926
367.6199	42.01614
367.7871	32.93818
367.9543	35.91201
368.1215	38.68643
368.2886	34.40919
368.4558	33.19036
368.623	36.41576
368.7902	35.15608
368.9573	34.7104
369.1245	40.72846
369.2917	45.20887
369.4588	39.99632
369.6259	42.55109
369.7931	43.40767
369.9602	42.57327
370.1274	41.52799
370.2945	42.14316
370.4616	41.449
370.6287	38.43126
370.7958	33.05939
370.963	32.86531
371.1301	37.83043
371.2971	43.69142
371.4643	52.5207
371.6313	46.80251
371.7984	38.2091
371.9655	31.39187
372.1326	32.75701
372.2997	33.96089
372.4667	37.38626
372.6338	40.02317
372.8008	37.45172
372.9679	35.73228
373.1349	36.14917
373.3019	35.30101
373.469	31.00367
373.636	32.47477
373.803	32.17076
373.9701	38.35248
374.1371	38.55208
374.3041	39.36576
374.4711	38.94402
374.6381	35.87166
374.8051	28.89079
374.9721	31.77244
375.1391	34.77774
375.3061	43.80227
375.473	55.2124
375.64	42.46345
375.8069	39.80128
375.9739	41.28183
376.1409	42.57198
376.3078	44.52485
376.4748	43.01108
376.6417	35.88155
376.8087	38.03656
376.9756	43.2538
377.1425	45.12252
377.3094	52.77878
377.4763	54.7345
377.6432	57.54869
377.8102	54.49254
377.9771	56.33069
378.144	58.05193
378.3109	52.32091
378.4777	52.77624
378.6446	53.94168
378.8115	53.18816
378.9784	46.31256
379.1452	46.43793
379.3121	48.7192
379.4789	41.30736
379.6458	41.41209
379.8127	39.51996
379.9795	45.6045
380.1463	50.90118
380.3131	50.82091
380.48	53.4126
380.6468	54.41123
380.8136	57.12896
380.9804	57.4518
381.1472	58.15368
381.314	52.2734
381.4808	43.97032
381.6476	42.10056
381.8144	46.62114
381.9812	48.95736
382.148	39.73876
382.3147	35.55272
382.4815	37.25232
382.6483	36.13359
382.815	32.44024
382.9818	32.4652
383.1485	36.31431
383.3153	35.3921
383.482	36.68708
383.6487	36.11436
383.8155	36.31591
383.9822	38.91087
384.1489	41.37254
384.3156	47.09832
384.4823	53.54953
384.649	57.6174
384.8157	57.34288
384.9824	54.48291
385.1491	56.47732
385.3158	50.49214
385.4825	51.91157
385.6491	53.1284
385.8158	46.8892
385.9825	47.58842
386.1491	47.42043
386.3157	49.16865
386.4824	54.57722
386.649	54.63694
386.8157	49.89027
386.9823	48.4096
387.1489	50.49382
387.3156	48.16641
387.4821	53.28838
387.6488	53.24385
387.8154	52.18816
387.982	54.14378
388.1486	53.77654
388.3152	53.58222
388.4818	51.49552
388.6483	49.85148
388.8149	48.3482
388.9815	51.30106
389.148	58.97244
389.3146	65.53018
389.4811	65.03591
389.6477	67.82632
389.8142	66.02303
389.9808	66.74618
390.1473	63.44082
390.3138	61.75768
390.4804	58.70817
390.6469	57.27885
390.8134	64.79517
390.9799	66.62534
391.1464	72.35925
391.3129	75.71164
391.4794	73.85639
391.6459	73.22391
391.8124	72.50346
391.9789	66.43586
392.1453	66.55309
392.3118	60.42819
392.4782	56.50147
392.6447	54.61853
392.8112	47.64851
392.9776	40.59005
393.144	33.60072
393.3105	25.36713
393.4769	26.32745
393.6433	33.76723
393.8098	39.17782
393.9762	53.94144
394.1426	59.81656
394.309	58.89831
394.4754	66.89005
394.6418	67.48959
394.8082	74.24407
394.9746	76.29671
395.141	80.51118
395.3073	78.85457
395.4737	78.76397
395.64	80.33968
395.8064	78.53977
395.9728	69.80901
396.1391	65.24914
396.3055	60.12449
396.4718	54.91819
396.6381	44.19541
396.8045	35.62951
396.9708	34.74324
397.1371	40.04153
397.3034	48.99793
397.4697	67.70861
397.636	72.59419
397.8023	82.67259
397.9686	89.74644
398.1349	91.76248
398.3012	84.91236
398.4675	85.31335
398.6337	94.10722
398.8	98.06643
398.9662	97.4011
399.1325	98.02501
399.2988	100.9745
399.465	97.40933
399.6313	94.97113
399.7975	96.1564
399.9637	99.18332
400.1299	100.9035
400.2961	106.2142
400.4624	107.1015
400.6286	94.34589
400.7948	108.1205
400.961	109.5797
401.1272	110.3755
401.2934	109.5881
401.4595	110.8711
401.6257	109.5903
401.7919	113.4244
401.9581	109.4985
402.1242	113.9325
402.2904	114.7322
402.4565	113.104
402.6227	115.1093
402.7888	119.4708
402.955	109.3279
403.1211	102.0447
403.2872	102.2556
403.4533	108.1916
403.6194	109.6587
403.7856	115.1563
403.9517	119.5483
404.1177	123.4713
404.2838	112.5536
404.4499	101.1025
404.616	102.9969
404.7821	103.6091
404.9482	111.8977
405.1142	117.3124
405.2803	122.1304
405.4464	115.7085
405.6124	107.6657
405.7784	109.7785
405.9445	120.0173
406.1105	112.6267
406.2766	110.8102
406.4426	107.7423
406.6086	104.732
406.7746	112.6761
406.9406	119.7963
407.1066	124.4765
407.2726	117.3709
407.4386	117.4611
407.6046	113.8547
407.7706	110.503
407.9366	114.8147
408.1025	124.1871
408.2685	124.9005
408.4344	123.1415
408.6004	127.0235
408.7664	134.8028
408.9323	139.2745
409.0983	137.0575
409.2642	133.4852
409.4301	132.9586
409.596	123.5296
409.762	125.4534
409.9279	115.0544
410.0938	105.6795
410.2597	105.6592
410.4256	113.412
410.5915	123.0661
410.7574	129.2704
410.9232	127.0904
411.0891	138.1315
411.255	138.2766
411.4209	146.0605
411.5867	147.2833
411.7526	148.6229
411.9184	137.8062
412.0843	134.5317
412.2501	137.6783
412.4159	145.693
412.5818	138.0925
412.7476	138.0333
412.9134	130.2071
413.0792	125.7666
413.245	126.5668
413.4108	130.9219
413.5766	133.7754
413.7424	144.032
413.9082	148.1054
414.074	147.3035
414.2397	131.9958
414.4055	129.2286
414.5713	129.094
414.737	136.1918
414.9028	136.2195
415.0685	141.575
415.2343	141.3449
415.4	140.5868
415.5658	137.1806
415.7315	135.2969
415.8972	143.6765
416.0629	141.2652
416.2286	152.7811
416.3943	151.0298
416.56	152.9441
416.7257	148.3716
416.8914	146.9894
417.0571	144.841
417.2228	138.71
417.3884	139.3211
417.5541	145.6658
417.7198	146.1328
417.8854	144.6301
418.0511	148.1981
418.2167	144.2171
418.3824	143.3548
418.548	152.5823
418.7136	145.6743
418.8792	141.613
419.0449	146.6072
419.2105	153.1527
419.3761	156.5457
419.5417	147.2395
419.7073	146.0866
419.8729	138.7553
420.0385	135.8445
420.204	145.2199
420.3696	154.7445
420.5352	159.7173
420.7007	160.8378
420.8663	163.1025
421.0319	168.3994
421.1974	170.297
421.3629	168.8015
421.5285	159.4674
421.694	159.2431
421.8595	160.8556
422.0251	167.7554
422.1906	168.5146
422.3561	156.0238
422.5216	141.4411
422.6871	127.6322
422.8526	145.18
423.0181	158.1889
423.1835	164.1731
423.349	161.7375
423.5145	160.9186
423.68	150.8447
423.8454	150.7054
424.0109	157.796
424.1763	161.927
424.3418	177.8567
424.5072	180.3899
424.6726	167.2345
424.838	160.0942
425.0035	152.4488
425.1689	163.6682
425.3343	159.2802
425.4997	164.2678
425.6651	170.1702
425.8305	164.1181
425.9959	156.5066
426.1613	153.7467
426.3267	160.9485
426.492	172.2034
426.6574	176.6051
426.8228	165.041
426.9881	162.5027
427.1534	146.4389
427.3188	136.0316
427.4841	146.7946
427.6495	162.6238
427.8148	162.3054
427.9801	167.6254
428.1454	162.2806
428.3107	165.4147
428.476	164.3547
428.6414	161.9388
428.8066	156.9362
428.9719	151.7332
429.1372	157.6871
429.3025	154.2142
429.4678	161.8505
429.633	151.1605
429.7983	137.4054
429.9636	127.1151
430.1288	117.3666
430.294	117.683
430.4593	122.4968
430.6245	123.1909
430.7897	118.2386
430.955	113.4212
431.1202	111.8936
431.2854	137.0297
431.4506	159.7655
431.6158	184.0198
431.781	198.5125
431.9462	202.7522
432.1114	192.8718
432.2766	169.8823
432.4417	158.739
432.6069	156.4853
432.772	163.8028
432.9372	178.8233
433.1024	195.0289
433.2675	200.7259
433.4326	198.9048
433.5977	190.4806
433.7629	164.1441
433.928	153.8482
434.0931	149.1056
434.2582	156.4089
434.4233	170.2093
434.5884	186.4595
434.7535	191.8791
434.9186	202.0728
435.0837	189.7683
435.2488	188.4731
435.4138	189.0565
435.5789	190.8756
435.744	205.8858
435.909	203.243
436.0741	206.7845
436.2391	215.2135
436.4042	222.6641
436.5692	216.0029
436.7342	215.1846
436.8992	207.2439
437.0643	205.047
437.2293	204.129
437.3943	193.552
437.5593	191.0872
437.7243	205.5654
437.8893	211.4812
438.0542	205.7739
438.2192	190.2299
438.3842	173.0592
438.5491	168.82
438.7141	179.9704
438.8791	197.0214
439.044	203.2781
439.209	207.2034
439.3739	203.3761
439.5388	202.2608
439.7037	214.8444
439.8687	218.2141
440.0336	215.6042
440.1985	207.1081
440.3634	200.45
440.5283	198.8405
440.6932	197.3866
440.8581	200.8438
441.0229	223.7888
441.1878	228.8954
441.3527	230.015
441.5175	226.7402
441.6824	226.9809
441.8472	231.656
442.0121	232.0421
442.1769	230.577
442.3418	230.8647
442.5066	230.9677
442.6714	238.4952
442.8362	235.418
443.001	233.7614
443.1659	234.0319
443.3307	220.161
443.4955	225.9492
443.6602	228.0177
443.825	234.9194
443.9898	238.9435
444.1546	236.7276
444.3193	232.3504
444.4841	233.3158
444.6488	239.6242
444.8136	248.395
444.9783	241.2153
445.1431	235.1298
445.3078	238.0535
445.4725	231.1334
445.6372	213.5173
445.802	209.8285
445.9667	222.58
446.1314	219.583
446.2961	223.1278
446.4608	234.8142
446.6255	236.5018
446.7901	236.7685
446.9548	233.875
447.1195	241.3185
447.2841	250.6956
447.4488	265.6307
447.6134	261.3868
447.7781	262.1285
447.9427	254.81
448.1074	246.1806
448.272	237.507
448.4366	239.9599
448.6012	257.872
448.7658	261.5999
448.9305	250.659
449.095	249.5659
449.2596	252.5943
449.4242	253.3306
449.5888	252.628
449.7534	262.2231
449.9179	265.6227
450.0825	267.5123
450.2471	272.4024
450.4116	278.0866
450.5762	287.3275
450.7407	283.7954
450.9052	279.3903
451.0698	281.1068
451.2343	284.9476
451.3988	281.5039
451.5633	271.4184
451.7278	268.4095
451.8923	273.0934
452.0568	276.7087
452.2213	270.3615
452.3858	270.735
452.5503	264.3482
452.7148	247.6988
452.8792	244.7362
453.0437	242.7001
453.2081	252.8262
453.3726	251.4747
453.537	251.2014
453.7015	262.4795
453.8659	278.9934
454.0303	281.347
454.1947	277.8954
454.3592	277.9938
454.5236	274.7899
454.688	274.9655
454.8524	263.0502
455.0168	259.8287
455.1811	260.2836
455.3455	264.0874
455.5099	269.8596
455.6743	274.9263
455.8386	279.4813
456.003	281.7891
456.1673	290.8419
456.3317	283.4845
456.496	282.5886
456.6603	270.3839
456.8246	280.4678
456.989	288.0377
457.1533	276.4663
457.3176	282.0781
457.4819	290.6139
457.6462	296.9438
457.8105	283.5107
457.9748	277.13
458.1391	272.0528
458.3033	268.3126
458.4676	269.4198
458.6319	274.8125
458.7961	277.4798
458.9604	285.4107
459.1246	283.5653
459.2888	279.4637
459.4531	280.0273
459.6173	281.4644
459.7815	272.3033
459.9457	266.9082
460.11	270.4562
460.2741	282.4019
460.4384	270.0755
460.6025	283.238
460.7667	289.2658
460.9309	291.9663
461.0951	283.5191
461.2592	277.2379
461.4234	284.5382
461.5876	283.2767
461.7517	282.1235
461.9159	292.31
462.08	291.4318
462.2441	290.4089
462.4082	293.3774
462.5724	286.7095
462.7365	290.4122
462.9006	286.6885
463.0647	299.3623
463.2288	293.7379
463.3929	293.9942
463.557	292.8681
463.721	286.8627
463.8851	283.9735
464.0492	278.1693
464.2132	291.1009
464.3773	294.9942
464.5414	280.3047
464.7054	279.1412
464.8694	269.5475
465.0334	271.8146
465.1975	286.3051
465.3615	287.0096
465.5255	283.7296
465.6895	294.1426
465.8535	300.9944
466.0175	307.57
466.1815	305.1983
466.3455	293.3311
466.5095	283.989
466.6734	273.0965
466.8374	266.0394
467.0014	268.409
467.1653	277.9122
467.3293	294.378
467.4932	303.5054
467.6571	301.9713
467.8211	297.3749
467.985	292.4102
468.1489	291.8489
468.3128	292.7779
468.4767	294.5923
468.6406	300.6223
468.8045	298.9357
468.9684	298.9969
469.1323	309.1123
469.2962	300.9937
469.46	304.0465
469.6239	308.0757
469.7878	301.858
469.9516	299.8607
470.1154	296.5783
470.2793	283.8573
470.4431	290.433
470.607	286.2318
470.7708	287.5947
470.9346	289.991
471.0984	293.9569
471.2622	299.0377
471.426	302.3284
471.5898	304.857
471.7536	316.0757
471.9174	314.5942
472.0811	314.2519
472.2449	310.1508
472.4087	329.0622
472.5724	331.1692
472.7362	315.9438
472.8999	308.2434
473.0637	305.0415
473.2274	303.5723
473.3911	313.5152
473.5548	310.7165
473.7185	310.2772
473.8822	307.8918
474.0459	311.5173
474.2096	318.8285
474.3733	313.9088
474.537	315.7043
474.7007	313.1231
474.8643	314.3626
475.028	309.6138
475.1917	313.7426
475.3553	310.8712
475.519	299.3326
475.6826	305.0822
475.8463	307.6285
476.0099	307.4089
476.1735	302.6976
476.3371	288.7227
476.5007	286.2982
476.6643	295.924
476.8279	294.3887
476.9915	297.6542
477.1551	305.5292
477.3187	307.9463
477.4823	309.4098
477.6458	325.1252
477.8094	321.5195
477.9729	320.3514
478.1365	322.488
478.3	312.614
478.4636	308.1939
478.6271	301.268
478.7906	300.391
478.9541	306.5882
479.1176	307.3795
479.2812	319.453
479.4447	318.6883
479.6082	321.42
479.7716	318.7092
479.9351	310.9724
480.0986	314.0891
480.2621	312.0105
480.4255	312.0092
480.589	315.2827
480.7524	306.2359
480.9159	307.417
481.0793	316.3242
481.2428	309.0179
481.4062	314.0901
481.5696	324.8016
481.733	321.0032
481.8964	325.952
482.0598	325.9198
482.2232	324.5842
482.3866	314.0406
482.55	311.4481
482.7134	313.4583
482.8768	315.2608
483.0401	313.8494
483.2035	314.2883
483.3668	310.3433
483.5302	315.7011
483.6935	314.1608
483.8568	315.8687
484.0202	311.9773
484.1835	305.025
484.3468	304.2769
484.5101	310.5067
484.6734	307.6042
484.8367	313.1753
485	314.7207
485.1633	313.9355
485.3266	322.0466
485.4899	310.5468
485.6531	293.0586
485.8164	281.6161
485.9796	257.6421
486.1429	234.5285
486.3061	234.3427
486.4694	250.9934
486.6326	283.9892
486.7958	301.5033
486.959	293.8303
487.1223	290.1271
487.2855	294.2239
487.4486	296.9515
487.6118	304.6082
487.775	313.0877
487.9382	312.5258
488.1014	318.3923
488.2646	311.1266
488.4277	304.0229
488.5909	297.2397
488.754	300.6867
488.9171	289.3549
489.0803	290.7575
489.2434	299.05
489.4066	313.7997
489.5697	332.1051
489.7328	332.4134
489.8959	333.8184
490.059	328.1762
490.2221	325.5283
490.3852	326.2975
490.5482	327.7859
490.7113	326.1653
490.8744	324.1051
491.0374	311.4028
491.2005	304.0666
491.3636	316.8082
491.5266	326.3549
491.6896	316.5856
491.8527	299.2433
492.0157	284.935
492.1787	280.1251
492.3417	290.0034
492.5047	308.2872
492.6677	314.7199
492.8307	319.0353
492.9937	330.7909
493.1567	331.5125
493.3196	310.4318
493.4826	315.7907
493.6456	306.2881
493.8085	301.5948
493.9715	304.56
494.1344	311.7852
494.2974	318.5858
494.4603	328.8329
494.6232	325.1103
494.7861	331.074
494.949	332.2233
495.1119	333.8682
495.2748	329.3368
495.4377	321.9627
495.6006	307.6433
495.7635	296.7737
495.9264	300.4745
496.0892	319.9254
496.2521	332.592
496.4149	327.5763
496.5778	322.062
496.7407	318.61
496.9035	314.887
497.0663	317.4615
497.2291	329.2024
497.3919	329.9129
497.5547	332.4252
497.7176	323.568
497.8804	319.0515
498.0432	314.1771
498.2059	313.6625
498.3687	293.5782
498.5315	294.9002
498.6942	310.3632
498.857	318.7352
499.0198	332.2095
499.1825	329.6753
499.3452	325.9631
499.508	326.7319
499.6707	329.3114
499.8334	328.1841
499.9962	321.5928
500.1589	319.4357
500.3216	314.9301
500.4843	305.9391
500.6469	310.604
500.8096	311.223
500.9723	317.878
501.135	319.1964
501.2976	308.5475
501.4603	308.3328
501.623	307.4168
501.7856	315.3399
501.9482	308.4977
502.1109	314.1072
502.2735	310.1583
502.4361	320.2944
502.5987	317.8792
502.7614	318.6054
502.924	322.6137
503.0865	322.231
503.2491	335.4297
503.4117	338.7328
503.5743	333.98
503.7368	324.0769
503.8994	312.7646
504.062	300.0721
504.2245	302.0015
504.3871	308.7178
504.5496	332.4061
504.7121	333.7964
504.8746	332.1931
505.0372	323.5441
505.1997	328.4755
505.3622	330.1831
505.5247	338.4749
505.6872	341.9363
505.8497	342.0125
506.0121	349.6549
506.1746	354.7054
506.3371	342.6629
506.4995	339.3712
506.662	341.7628
506.8244	332.2944
506.9869	329.9932
507.1493	336.7936
507.3117	330.3955
507.4742	333.6234
507.6366	329.9077
507.799	318.617
507.9614	317.4253
508.1238	319.7955
508.2862	316.0229
508.4485	326.4217
508.6109	340.0879
508.7733	348.0627
508.9357	341.9177
509.098	342.0171
509.2604	340.3902
509.4227	344.3035
509.5851	337.3882
509.7474	327.4126
509.9097	318.242
510.072	318.0096
510.2343	329.8103
510.3966	338.1613
510.5589	329.9564
510.7212	325.3923
510.8835	326.1204
511.0458	325.367
511.2081	329.3872
511.3703	337.1839
511.5326	334.1774
511.6949	336.1509
511.8571	344.3293
512.0193	343.7601
512.1816	329.7775
512.3438	325.3062
512.506	320.1705
512.6682	312.9709
512.8304	318.3393
512.9926	313.6862
513.1548	323.2611
513.317	323.4068
513.4792	328.1048
513.6414	316.0551
513.8035	313.8756
513.9657	304.9459
514.1279	301.9123
514.29	306.7031
514.4521	316.8001
514.6143	321.5571
514.7764	311.8035
514.9385	316.2864
515.1006	315.5028
515.2628	311.5814
515.4249	315.0908
515.587	311.501
515.7491	320.3584
515.9111	322.8283
516.0732	319.2825
516.2353	316.1358
516.3973	306.2485
516.5594	291.0276
