SPECTRUM DATA FILE
SpectrumCount:	1
PixelCount:	3648
UserName:	ToughBook User
SampleName:	
LightSource:	
Comments:	
DeviceName:	Qwave
DeviceManufacturer:	Broadcom
DeviceSerialNo:	11311

Name:	last spectrum
Date:	2024-05-02T15:22:41.0556090+02:00
ExposureTime:	0.02
TemporalAvg:	1
IntensityUnit:	normalizedCounts
CCDLoadLevel:	0.07515053
Temperature:	29.98056
DiagramColor:	200
ProcessingSteps:	335

Wavelength [nm]	Intensity1
334.421	13.21547
334.5891	17.10098
334.7573	17.59668
334.9254	18.36319
335.0935	18.3845
335.2616	13.54713
335.4297	17.8305
335.5978	19.98904
335.7659	13.80072
335.934	9.293572
336.1021	13.47587
336.2701	18.86473
336.4382	12.75627
336.6063	13.5737
336.7744	15.33413
336.9424	15.30979
337.1105	16.78839
337.2785	19.62954
337.4466	20.46208
337.6146	19.03163
337.7827	15.29777
337.9507	15.45447
338.1187	15.05503
338.2867	16.72756
338.4548	14.67751
338.6228	15.37892
338.7908	15.13233
338.9588	15.53597
339.1268	17.63922
339.2948	16.97603
339.4628	14.64106
339.6308	17.1818
339.7988	17.2689
339.9667	16.20418
340.1347	22.54058
340.3027	20.30492
340.4707	19.08542
340.6386	18.94814
340.8066	15.27207
340.9745	17.18441
341.1425	12.92444
341.3104	17.90556
341.4784	19.38762
341.6463	20.14424
341.8142	16.29246
341.9821	14.08244
342.1501	18.06523
342.318	19.03697
342.4859	21.66398
342.6538	18.89487
342.8217	18.90891
342.9896	21.95711
343.1575	19.03644
343.3254	21.66215
343.4933	23.76352
343.6612	17.33381
343.829	21.08605
343.9969	20.76702
344.1648	18.42439
344.3326	13.75775
344.5005	9.496773
344.6683	15.40242
344.8362	18.00292
345.004	19.23282
345.1719	17.4972
345.3397	20.91047
345.5075	20.66673
345.6754	19.00531
345.8432	14.53995
346.011	19.66428
346.1788	16.14663
346.3466	15.74686
346.5144	17.7684
346.6822	24.26927
346.85	26.29882
347.0178	20.51724
347.1856	17.60152
347.3534	17.20739
347.5211	13.86163
347.6889	18.37217
347.8567	17.87703
348.0244	24.2218
348.1922	21.07777
348.3599	23.08549
348.5277	25.63488
348.6954	22.54802
348.8632	20.26206
349.0309	20.65195
349.1986	22.04127
349.3663	21.93973
349.5341	17.1811
349.7018	21.9992
349.8695	23.96967
350.0372	19.74395
350.2049	28.59973
350.3726	25.40627
350.5403	26.89703
350.7079	25.95805
350.8756	28.58268
351.0433	24.79983
351.211	23.51509
351.3786	20.62084
351.5463	20.71652
351.714	22.49249
351.8816	19.71498
352.0493	20.20082
352.2169	23.69906
352.3846	21.66981
352.5522	22.92677
352.7198	21.77068
352.8875	20.21138
353.0551	24.59425
353.2227	22.07879
353.3903	24.03009
353.5579	24.34964
353.7255	28.93407
353.8931	25.00712
354.0607	26.57542
354.2283	27.58967
354.3958	27.97553
354.5634	25.07632
354.731	25.81482
354.8986	35.51752
355.0661	26.03489
355.2337	25.85867
355.4012	24.89552
355.5688	24.42428
355.7363	22.48818
355.9039	28.40985
356.0714	26.28602
356.239	27.32763
356.4065	29.08377
356.574	22.67116
356.7415	19.50865
356.909	21.81469
357.0765	22.704
357.244	26.6203
357.4115	26.04133
357.579	26.44469
357.7465	24.93469
357.914	21.52414
358.0815	22.25599
358.249	18.84996
358.4164	18.25645
358.5839	15.62309
358.7513	21.41033
358.9188	26.14041
359.0862	24.85442
359.2537	29.08142
359.4211	30.3531
359.5886	30.35345
359.756	31.39561
359.9234	32.2011
360.0909	23.10939
360.2583	28.27955
360.4257	24.42013
360.5931	26.16204
360.7605	24.67985
360.9279	23.43031
361.0953	27.02489
361.2627	26.84517
361.4301	28.04273
361.5974	26.53039
361.7648	24.17912
361.9322	23.44771
362.0995	28.18218
362.2669	28.9099
362.4343	27.77969
362.6016	33.04675
362.769	33.18811
362.9363	35.58894
363.1036	33.67283
363.271	27.38731
363.4383	27.55057
363.6056	30.43103
363.7729	33.59247
363.9402	33.42229
364.1075	31.31976
364.2748	29.2984
364.4421	29.86881
364.6094	25.46926
364.7767	31.25554
364.944	29.49734
365.1113	28.26518
365.2786	33.09914
365.4458	37.89436
365.6131	42.24873
365.7803	41.15261
365.9476	43.85897
366.1148	35.11819
366.2821	29.1126
366.4493	29.35117
366.6166	33.98213
366.7838	33.28659
366.951	39.21153
367.1182	35.51356
367.2855	35.32568
367.4527	35.30667
367.6199	33.63967
367.7871	35.03777
367.9543	36.71339
368.1215	26.42089
368.2886	36.03621
368.4558	38.06219
368.623	34.41661
368.7902	34.85734
368.9573	34.38593
369.1245	37.46043
369.2917	40.87505
369.4588	38.30288
369.6259	40.99601
369.7931	41.31076
369.9602	41.65444
370.1274	40.27453
370.2945	32.25224
370.4616	33.30569
370.6287	33.70766
370.7958	35.08647
370.963	35.87475
371.1301	36.02497
371.2971	41.96091
371.4643	47.27517
371.6313	46.4867
371.7984	43.55341
371.9655	33.15608
372.1326	33.94512
372.2997	33.97161
372.4667	39.8098
372.6338	44.53082
372.8008	45.23752
372.9679	40.34879
373.1349	38.03087
373.3019	32.40153
373.469	29.05589
373.636	30.43081
373.803	35.02672
373.9701	38.00973
374.1371	43.14758
374.3041	39.99257
374.4711	37.172
374.6381	30.83442
374.8051	27.7291
374.9721	27.65438
375.1391	35.61506
375.3061	41.61792
375.473	42.61076
375.64	42.17763
375.8069	46.00463
375.9739	42.11474
376.1409	40.97544
376.3078	38.42847
376.4748	39.83856
376.6417	39.79937
376.8087	37.97468
376.9756	45.57561
377.1425	42.78489
377.3094	46.7465
377.4763	49.13911
377.6432	51.29675
377.8102	58.27004
377.9771	51.63655
378.144	50.08635
378.3109	53.06695
378.4777	54.73289
378.6446	46.2021
378.8115	46.17361
378.9784	49.25549
379.1452	48.68178
379.3121	49.46223
379.4789	46.894
379.6458	43.95728
379.8127	38.79478
379.9795	39.87594
380.1463	47.90665
380.3131	51.25646
380.48	51.54503
380.6468	52.8113
380.8136	52.903
380.9804	53.81931
381.1472	51.89926
381.314	49.89124
381.4808	45.84096
381.6476	44.59648
381.8144	44.11425
381.9812	38.45825
382.148	38.3764
382.3147	40.19799
382.4815	38.74847
382.6483	36.95161
382.815	36.36057
382.9818	33.71449
383.1485	35.29269
383.3153	32.54419
383.482	38.28225
383.6487	40.46463
383.8155	37.15431
383.9822	37.72874
384.1489	40.86806
384.3156	47.10926
384.4823	53.22967
384.649	52.9777
384.8157	55.53222
384.9824	52.08503
385.1491	54.79098
385.3158	52.41547
385.4825	48.68089
385.6491	50.12825
385.8158	43.99452
385.9825	41.64447
386.1491	50.76842
386.3157	52.18879
386.4824	55.72666
386.649	51.77307
386.8157	49.48311
386.9823	51.35596
387.1489	44.83154
387.3156	45.47308
387.4821	54.65661
387.6488	50.3774
387.8154	52.9613
387.982	46.06586
388.1486	50.88966
388.3152	49.24214
388.4818	47.58817
388.6483	50.28262
388.8149	52.63689
388.9815	53.13716
389.148	56.22701
389.3146	65.74594
389.4811	62.42399
389.6477	67.09793
389.8142	66.32159
389.9808	64.87868
390.1473	66.10427
390.3138	65.02268
390.4804	60.75804
390.6469	62.36602
390.8134	70.56748
390.9799	75.34744
391.1464	67.59798
391.3129	72.58643
391.4794	71.78522
391.6459	67.41233
391.8124	61.66307
391.9789	63.7681
392.1453	57.8954
392.3118	52.72514
392.4782	62.58236
392.6447	51.89486
392.8112	42.50396
392.9776	35.63771
393.144	29.76299
393.3105	26.49933
393.4769	29.63448
393.6433	34.71011
393.8098	39.3003
393.9762	47.63936
394.1426	56.43117
394.309	53.68827
394.4754	59.17568
394.6418	64.58711
394.8082	70.41837
394.9746	74.16895
395.141	74.05101
395.3073	80.47883
395.4737	79.94101
395.64	80.25033
395.8064	76.94713
395.9728	69.96417
396.1391	59.709
396.3055	48.32989
396.4718	43.20174
396.6381	35.54104
396.8045	34.30983
396.9708	30.07478
397.1371	41.6309
397.3034	45.35629
397.4697	61.50056
397.636	70.75503
397.8023	83.30556
397.9686	90.10856
398.1349	89.57776
398.3012	84.28084
398.4675	83.74455
398.6337	93.45287
398.8	101.823
398.9662	106.4287
399.1325	97.6608
399.2988	92.77253
399.465	97.9783
399.6313	94.07376
399.7975	94.54454
399.9637	100.869
400.1299	102.6855
400.2961	105.9575
400.4624	106.3537
400.6286	97.76572
400.7948	105.3744
400.961	108.1048
401.1272	107.1972
401.2934	103.9928
401.4595	105.0814
401.6257	106.1078
401.7919	106.8266
401.9581	106.9764
402.1242	112.5737
402.2904	109.8172
402.4565	105.8234
402.6227	109.472
402.7888	111.8609
402.955	105.7512
403.1211	100.261
403.2872	99.75574
403.4533	97.05714
403.6194	104.1968
403.7856	112.2678
403.9517	114.378
404.1177	114.3943
404.2838	112.5549
404.4499	102.073
404.616	93.748
404.7821	105.6527
404.9482	104.3689
405.1142	110.9244
405.2803	120.0992
405.4464	113.8086
405.6124	108.0724
405.7784	105.5318
405.9445	114.1389
406.1105	113.7744
406.2766	107.1959
406.4426	100.6016
406.6086	107.0814
406.7746	117.0265
406.9406	116.3433
407.1066	111.2361
407.2726	114.9859
407.4386	111.7777
407.6046	112.1481
407.7706	107.4527
407.9366	112.5156
408.1025	126.0084
408.2685	127.8001
408.4344	125.1462
408.6004	128.3821
408.7664	135.7182
408.9323	135.422
409.0983	136.8065
409.2642	130.1422
409.4301	126.4406
409.596	122.2333
409.762	114.0881
409.9279	108.9821
410.0938	102.2795
410.2597	101.0172
410.4256	111.6442
410.5915	117.8432
410.7574	124.2857
410.9232	131.3203
411.0891	130.1289
411.255	132.188
411.4209	136.7301
411.5867	136.832
411.7526	141.8629
411.9184	137.4615
412.0843	137.6434
412.2501	140.504
412.4159	136.7608
412.5818	129.5573
412.7476	130.5918
412.9134	139.9922
413.0792	128.134
413.245	121.1237
413.4108	128.266
413.5766	133.9953
413.7424	139.9191
413.9082	147.6312
414.074	143.2974
414.2397	132.3922
414.4055	130.8617
414.5713	133.4151
414.737	138.599
414.9028	139.4685
415.0685	150.0172
415.2343	144.2757
415.4	135.9161
415.5658	128.0243
415.7315	129.857
415.8972	138.452
416.0629	146.184
416.2286	146.4347
416.3943	147.225
416.56	151.7408
416.7257	147.6778
416.8914	144.1254
417.0571	145.0748
417.2228	137.5626
417.3884	135.5766
417.5541	136.7915
417.7198	141.2279
417.8854	138.1793
418.0511	140.7192
418.2167	142.9541
418.3824	144.6796
418.548	142.3823
418.7136	138.8407
418.8792	137.6753
419.0449	148.4291
419.2105	150.9071
419.3761	159.587
419.5417	154.2164
419.7073	139.9628
419.8729	138.1964
420.0385	142.7446
420.204	144.0992
420.3696	149.3845
420.5352	153.8316
420.7007	162.0683
420.8663	161.3844
421.0319	165.3007
421.1974	163.7023
421.3629	158.8483
421.5285	155.022
421.694	157.3624
421.8595	155.2388
422.0251	166.4245
422.1906	171.8136
422.3561	159.6254
422.5216	140.3646
422.6871	128.6924
422.8526	141.3266
423.0181	151.6049
423.1835	162.373
423.349	158.9614
423.5145	155.1917
423.68	145.8129
423.8454	157.0132
424.0109	162.2254
424.1763	155.5584
424.3418	166.0023
424.5072	172.928
424.6726	164.7814
424.838	156.3561
425.0035	156.5444
425.1689	158.0376
425.3343	161.0385
425.4997	160.4829
425.6651	165.5487
425.8305	164.0667
425.9959	150.6422
426.1613	151.5212
426.3267	166.5832
426.492	173.2188
426.6574	165.6874
426.8228	163.3783
426.9881	152.0398
427.1534	137.5237
427.3188	138.5238
427.4841	145.1763
427.6495	157.3768
427.8148	167.5308
427.9801	171.0124
428.1454	164.7233
428.3107	157.8408
428.476	161.971
428.6414	153.3579
428.8066	147.0514
428.9719	146.2526
429.1372	149.5123
429.3025	151.6255
429.4678	160.6094
429.633	156.7908
429.7983	137.8637
429.9636	121.7197
430.1288	117.7284
430.294	118.289
430.4593	118.7053
430.6245	120.5368
430.7897	122.1197
430.955	113.2534
431.1202	117.6842
431.2854	134.5552
431.4506	152.7263
431.6158	174.6563
431.781	187.6933
431.9462	194.3415
432.1114	192.9521
432.2766	173.5747
432.4417	153.3519
432.6069	145.8906
432.772	156.2144
432.9372	176.0119
433.1024	188.4029
433.2675	192.37
433.4326	193.7374
433.5977	184.548
433.7629	167.3087
433.928	152.7682
434.0931	144.4518
434.2582	154.3346
434.4233	169.1297
434.5884	183.8175
434.7535	189.6982
434.9186	195.6163
435.0837	186.8666
435.2488	184.0531
435.4138	183.3686
435.5789	188.1282
435.744	189.8414
435.909	194.8109
436.0741	202.9904
436.2391	202.9163
436.4042	213.687
436.5692	215.1403
436.7342	208.2085
436.8992	210.0657
437.0643	201.0869
437.2293	192.1032
437.3943	192.0814
437.5593	196.8762
437.7243	197.7569
437.8893	202.8992
438.0542	197.0287
438.2192	181.0843
438.3842	166.3785
438.5491	168.9729
438.7141	175.3291
438.8791	195.0238
439.044	200.3518
439.209	201.6805
439.3739	200.7211
439.5388	207.7942
439.7037	205.8852
439.8687	206.8297
440.0336	213.6783
440.1985	209.3357
440.3634	196.2226
440.5283	189.3805
440.6932	192.8633
440.8581	199.8928
441.0229	212.9033
441.1878	229.1805
441.3527	224.2679
441.5175	218.2762
441.6824	209.7599
441.8472	221.3583
442.0121	228.5139
442.1769	226.1349
442.3418	225.2
442.5066	217.4282
442.6714	221.3248
442.8362	226.7781
443.001	219.4425
443.1659	222.5049
443.3307	217.7201
443.4955	219.1583
443.6602	226.5405
443.825	232.721
443.9898	232.6513
444.1546	226.4271
444.3193	222.8041
444.4841	220.5475
444.6488	238.7044
444.8136	240.773
444.9783	239.8948
445.1431	243.8453
445.3078	239.6614
445.4725	228.2052
445.6372	211.1119
445.802	208.7692
445.9667	213.8746
446.1314	214.4864
446.2961	226.6577
446.4608	229.9674
446.6255	233.116
446.7901	234.3189
446.9548	229.7269
447.1195	230.1343
447.2841	239.9157
447.4488	254.445
447.6134	258.7191
447.7781	257.7451
447.9427	247.3291
448.1074	238.7328
448.272	230.9535
448.4366	236.7234
448.6012	253.1697
448.7658	262.1656
448.9305	253.8616
449.095	249.2639
449.2596	247.206
449.4242	256.5685
449.5888	251.3196
449.7534	254.8392
449.9179	254.5971
450.0825	264.4785
450.2471	267.0408
450.4116	270.0006
450.5762	278.0271
450.7407	271.5798
450.9052	273.3142
451.0698	270.1695
451.2343	270.1293
451.3988	269.5315
451.5633	267.2601
451.7278	263.7718
451.8923	270.4131
452.0568	268.3447
452.2213	264.4592
452.3858	262.3396
452.5503	253.3553
452.7148	245.9801
452.8792	237.405
453.0437	244.0808
453.2081	244.7303
453.3726	244.6517
453.537	244.6268
453.7015	258.562
453.8659	270.4567
454.0303	276.7245
454.1947	270.9601
454.3592	268.4487
454.5236	276.0399
454.688	269.7155
454.8524	263.2357
455.0168	254.2554
455.1811	258.528
455.3455	260.2262
455.5099	265.2976
455.6743	263.8279
455.8386	267.848
456.003	276.9682
456.1673	283.1541
456.3317	284.0902
456.496	270.7965
456.6603	271.0338
456.8246	263.7504
456.989	265.4867
457.1533	268.1248
457.3176	270.2806
457.4819	277.3552
457.6462	285.0388
457.8105	272.371
457.9748	269.5409
458.1391	268.0505
458.3033	258.9358
458.4676	257.9151
458.6319	253.7516
458.7961	276.0463
458.9604	289.7638
459.1246	278.5923
459.2888	276.0526
459.4531	265.5229
459.6173	268.6733
459.7815	276.2144
459.9457	282.2863
460.11	268.3123
460.2741	265.9611
460.4384	269.0127
460.6025	272.1255
460.7667	279.3636
460.9309	279.1098
461.0951	283.8803
461.2592	281.4248
461.4234	282.5067
461.5876	280.8578
461.7517	283.8275
461.9159	283.9495
462.08	291.206
462.2441	286.4515
462.4082	296.256
462.5724	282.2885
462.7365	283.7683
462.9006	282.7087
463.0647	295.0931
463.2288	288.5215
463.3929	278.3802
463.557	283.0823
463.721	281.1465
463.8851	272.3952
464.0492	278.717
464.2132	286.0598
464.3773	287.4568
464.5414	277.2316
464.7054	275.2263
464.8694	276.1217
465.0334	275.9441
465.1975	289.0222
465.3615	288.2951
465.5255	285.3085
465.6895	277.408
465.8535	285.9005
466.0175	302.3141
466.1815	307.3488
466.3455	294.8095
466.5095	289.3994
466.6734	274.2687
466.8374	268.1508
467.0014	278.4892
467.1653	284.1202
467.3293	292.4291
467.4932	297.3769
467.6571	297.8763
467.8211	291.4011
467.985	289.6813
468.1489	286.2921
468.3128	295.6524
468.4767	303.7326
468.6406	300.4908
468.8045	307.8664
468.9684	296.361
469.1323	296.4356
469.2962	298.0968
469.46	304.7654
469.6239	306.5985
469.7878	301.2552
469.9516	291.6898
470.1154	287.3208
470.2793	282.2262
470.4431	281.3094
470.607	287.4672
470.7708	289.4543
470.9346	288.6042
471.0984	299.9226
471.2622	293.5836
471.426	300.0922
471.5898	299.6075
471.7536	310.6676
471.9174	323.4174
472.0811	321.4406
472.2449	324.1519
472.4087	316.7864
472.5724	314.1625
472.7362	303.1587
472.8999	290.7936
473.0637	293.8869
473.2274	287.3462
473.3911	295.1532
473.5548	294.4669
473.7185	294.625
473.8822	300.7207
474.0459	305.1902
474.2096	302.0763
474.3733	301.6571
474.537	297.8624
474.7007	309.6113
474.8643	317.6878
475.028	316.8904
475.1917	311.1003
475.3553	298.2307
475.519	295.6907
475.6826	298.9607
475.8463	300.1472
476.0099	295.6096
476.1735	296.7602
476.3371	298.5449
476.5007	289.7596
476.6643	286.0508
476.8279	296.9279
476.9915	307.6209
477.1551	301.3392
477.3187	307.1727
477.4823	315.2607
477.6458	325.6843
477.8094	311.9576
477.9729	310.0117
478.1365	310.838
478.3	306.7881
478.4636	310.1258
478.6271	301.6267
478.7906	296.2884
478.9541	302.2229
479.1176	299.1783
479.2812	306.4567
479.4447	311.2198
479.6082	318.051
479.7716	310.3959
479.9351	305.8251
480.0986	309.5503
480.2621	311.6996
480.4255	304.3991
480.589	300.8195
480.7524	303.4271
480.9159	301.1404
481.0793	300.5232
481.2428	301.6415
481.4062	303.8838
481.5696	314.8775
481.733	311.3218
481.8964	320.2323
482.0598	324.0868
482.2232	314.8904
482.3866	308.1598
482.55	306.8711
482.7134	309.2463
482.8768	308.3568
483.0401	301.5701
483.2035	304.2326
483.3668	313.5381
483.5302	318.0417
483.6935	308.7878
483.8568	314.3908
484.0202	305.0639
484.1835	296.4169
484.3468	298.5418
484.5101	305.4675
484.6734	310.5178
484.8367	301.4726
485	300.9483
485.1633	308.1258
485.3266	306.8753
485.4899	297.3844
485.6531	280.8821
485.8164	270.3764
485.9796	250.2793
486.1429	231.7745
486.3061	234.0318
486.4694	254.4651
486.6326	274.7574
486.7958	286.048
486.959	284.4819
487.1223	279.7188
487.2855	280.7346
487.4486	277.362
487.6118	298.6678
487.775	295.9506
487.9382	304.4822
488.1014	307.4657
488.2646	308.6283
488.4277	313.3069
488.5909	301.539
488.754	297.5811
488.9171	284.569
489.0803	291.1854
489.2434	295.5351
489.4066	309.2299
489.5697	325.6102
489.7328	327.4581
489.8959	326.9574
490.059	325.8626
490.2221	310.9073
490.3852	307.8278
490.5482	310.6721
490.7113	320.411
490.8744	311.6904
491.0374	304.5795
491.2005	302.5861
491.3636	310.2346
491.5266	324.1802
491.6896	308.7617
491.8527	290.9794
492.0157	275.8234
492.1787	267.1554
492.3417	280.1013
492.5047	304.6643
492.6677	309.1342
492.8307	325.9206
492.9937	326.6902
493.1567	319.7455
493.3196	308.6488
493.4826	309.3811
493.6456	309.4878
493.8085	305.6449
493.9715	296.6718
494.1344	303.4551
494.2974	307.9111
494.4603	324.1346
494.6232	321.87
494.7861	317.9015
494.949	318.5847
495.1119	317.7294
495.2748	320.0609
495.4377	312.9424
495.6006	309.1221
495.7635	294.2386
495.9264	305.4135
496.0892	321.1257
496.2521	324.0029
496.4149	321.5944
496.5778	314.4196
496.7407	321.3073
496.9035	323.4724
497.0663	319.9484
497.2291	319.6186
497.3919	322.8817
497.5547	329.1622
497.7176	330.4977
497.8804	312.6969
498.0432	305.7299
498.2059	302.636
498.3687	291.2382
498.5315	288.4397
498.6942	310.1684
498.857	319.9017
499.0198	322.3158
499.1825	324.9687
499.3452	322.9775
499.508	314.3148
499.6707	321.6921
499.8334	326.2247
499.9962	321.2554
500.1589	315.0416
500.3216	320.2762
500.4843	311.8359
500.6469	306.7716
500.8096	312.5669
500.9723	309.3973
501.135	312.7957
501.2976	301.685
501.4603	300.9586
501.623	297.1918
501.7856	302.5175
501.9482	311.0956
502.1109	314.9966
502.2735	314.3043
502.4361	308.1317
502.5987	311.044
502.7614	313.6389
502.924	311.3861
503.0865	318.2903
503.2491	329.4015
503.4117	333.977
503.5743	321.9327
503.7368	311.9403
503.8994	299.7725
504.062	301.304
504.2245	293.2726
504.3871	314.266
504.5496	323.1635
504.7121	329.1977
504.8746	332.6946
505.0372	316.5709
505.1997	307.5015
505.3622	333.804
505.5247	338.053
505.6872	338.1206
505.8497	339.3274
506.0121	347.0976
506.1746	340.2339
506.3371	336.9671
506.4995	334.3798
506.662	328.7829
506.8244	330.8741
506.9869	328.2115
507.1493	329.5916
507.3117	327.3424
507.4742	333.8864
507.6366	333.2575
507.799	319.0064
507.9614	311.5294
508.1238	311.3307
508.2862	309.3351
508.4485	317.7137
508.6109	322.9994
508.7733	333.2582
508.9357	333.9238
509.098	333.5962
509.2604	335.5936
509.4227	327.5949
509.5851	336.5627
509.7474	323.8515
509.9097	307.916
510.072	310.8406
510.2343	323.3831
510.3966	333.7238
510.5589	330.2414
510.7212	316.9105
510.8835	314.0929
511.0458	319.2513
511.2081	316.5498
511.3703	324.8175
511.5326	333.3443
511.6949	339.1457
511.8571	334.511
512.0193	332.3472
512.1816	335.9266
512.3438	319.3904
512.506	313.6055
512.6682	307.2304
512.8304	308.8862
512.9926	303.9861
513.1548	311.0818
513.317	309.1861
513.4792	313.3959
513.6414	303.7898
513.8035	306.2895
513.9657	301.6326
514.1279	302.504
514.29	306.8059
514.4521	314.3158
514.6143	319.5686
514.7764	308.9968
514.9385	299.3019
515.1006	300.4583
515.2628	312.4754
515.4249	311.6412
515.587	307.979
515.7491	306.2816
515.9111	315.9946
516.0732	310.2854
516.2353	315.0612
