SPECTRUM DATA FILE
SpectrumCount:	1
PixelCount:	3648
UserName:	ToughBook User
SampleName:	
LightSource:	
Comments:	
DeviceName:	Qwave
DeviceManufacturer:	Broadcom
DeviceSerialNo:	11311

Name:	last spectrum
Date:	2024-05-02T15:07:11.1608765+02:00
ExposureTime:	0.02
TemporalAvg:	1
IntensityUnit:	normalizedCounts
CCDLoadLevel:	0.02268609
Temperature:	28.06824
DiagramColor:	200
ProcessingSteps:	335

Wavelength [nm]	Intensity1
334.421	4.859614
334.5891	7.211042
334.7573	2.303706
334.9254	1.668082
335.0935	2.254721
335.2616	1.315481
335.4297	0.9853396
335.5978	6.182883
335.7659	2.949954
335.934	3.20961
336.1021	5.587534
336.2701	3.026491
336.4382	3.30218
336.6063	7.726718
336.7744	3.429112
336.9424	0.9657356
337.1105	0.2029449
337.2785	5.686406
337.4466	6.221103
337.6146	5.090114
337.7827	6.80224
337.9507	3.196494
338.1187	2.538051
338.2867	2.960048
338.4548	7.841055
338.6228	2.603268
338.7908	4.106593
338.9588	3.098808
339.1268	1.737553
339.2948	3.012557
339.4628	4.884259
339.6308	6.901588
339.7988	4.462634
339.9667	2.289721
340.1347	5.72993
340.3027	1.001202
340.4707	3.853806
340.6386	4.312402
340.8066	3.701964
340.9745	5.496442
341.1425	2.653005
341.3104	5.479002
341.4784	4.577202
341.6463	4.241338
341.8142	4.594851
341.9821	4.101178
342.1501	5.844345
342.318	5.246826
342.4859	4.532715
342.6538	2.093503
342.8217	3.681241
342.9896	7.430173
343.1575	3.424883
343.3254	3.398746
343.4933	2.120011
343.6612	4.15635
343.829	8.339228
343.9969	3.730657
344.1648	1.249995
344.3326	5.84802
344.5005	5.184258
344.6683	0.5913849
344.8362	3.841865
345.004	6.280329
345.1719	10.07014
345.3397	3.401657
345.5075	1.512067
345.6754	2.954637
345.8432	4.857364
346.011	8.393447
346.1788	2.809714
346.3466	5.160417
346.5144	4.040219
346.6822	4.636997
346.85	7.498136
347.0178	6.154607
347.1856	3.676862
347.3534	1.601531
347.5211	0.6707617
347.6889	7.295347
347.8567	8.501185
348.0244	2.814219
348.1922	5.145697
348.3599	6.79003
348.5277	2.64211
348.6954	3.550462
348.8632	1.236552
349.0309	8.322225
349.1986	5.739124
349.3663	3.271848
349.5341	2.599862
349.7018	1.24309
349.8695	4.414532
350.0372	9.223913
350.2049	4.933081
350.3726	3.890013
350.5403	2.298665
350.7079	6.445496
350.8756	9.358329
351.0433	3.431677
351.211	6.059844
351.3786	7.65009
351.5463	5.581936
351.714	7.199185
351.8816	8.066792
352.0493	4.030003
352.2169	0.6646609
352.3846	3.923769
352.5522	2.739269
352.7198	5.941999
352.8875	6.613636
353.0551	7.406772
353.2227	6.034791
353.3903	6.163711
353.5579	2.739259
353.7255	10.9616
353.8931	5.734923
354.0607	8.251555
354.2283	9.60989
354.3958	8.579022
354.5634	5.485863
354.731	5.112819
354.8986	2.043418
355.0661	2.165541
355.2337	6.536303
355.4012	8.30293
355.5688	8.159701
355.7363	8.123713
355.9039	8.22619
356.0714	5.35331
356.239	8.27657
356.4065	2.928776
356.574	7.937913
356.7415	8.170788
356.909	5.547512
357.0765	5.933518
357.244	4.590803
357.4115	1.054846
357.579	1.537936
357.7465	-1.19883
357.914	3.71492
358.0815	5.105305
358.249	4.337107
358.4164	8.066258
358.5839	5.93856
358.7513	9.359548
358.9188	6.130896
359.0862	7.132099
359.2537	5.114981
359.4211	3.61638
359.5886	4.28805
359.756	3.533967
359.9234	5.550201
360.0909	6.479069
360.2583	6.407692
360.4257	7.553115
360.5931	5.699871
360.7605	4.55207
360.9279	2.726981
361.0953	7.207409
361.2627	4.46477
361.4301	8.10414
361.5974	5.922664
361.7648	3.079214
361.9322	3.969275
362.0995	7.330146
362.2669	4.813432
362.4343	3.723253
362.6016	6.402298
362.769	5.216854
362.9363	7.177275
363.1036	7.763276
363.271	5.616642
363.4383	5.27989
363.6056	10.40402
363.7729	8.839181
363.9402	9.501507
364.1075	7.519016
364.2748	7.750071
364.4421	4.576149
364.6094	4.196711
364.7767	4.674715
364.944	4.662266
365.1113	3.861902
365.2786	5.679191
365.4458	5.805148
365.6131	5.052777
365.7803	9.026562
365.9476	3.734546
366.1148	4.010672
366.2821	7.385593
366.4493	6.996258
366.6166	8.892897
366.7838	8.566264
366.951	5.216442
367.1182	3.618022
367.2855	9.09044
367.4527	8.79428
367.6199	3.773887
367.7871	3.02239
367.9543	9.38864
368.1215	7.458446
368.2886	7.675821
368.4558	7.317763
368.623	3.925103
368.7902	5.382674
368.9573	11.77925
369.1245	8.430055
369.2917	3.172357
369.4588	8.436899
369.6259	6.606237
369.7931	5.957736
369.9602	6.771465
370.1274	6.068779
370.2945	5.97517
370.4616	0.8107356
370.6287	6.273849
370.7958	8.159988
370.963	8.469288
371.1301	9.075303
371.2971	8.172057
371.4643	7.801271
371.6313	8.974416
371.7984	8.891205
371.9655	7.710215
372.1326	3.561172
372.2997	5.659704
372.4667	4.762093
372.6338	6.580062
372.8008	5.963423
372.9679	10.35631
373.1349	8.170222
373.3019	11.29393
373.469	11.54374
373.636	9.130398
373.803	10.70004
373.9701	13.53415
374.1371	6.872093
374.3041	10.62793
374.4711	9.855018
374.6381	2.004357
374.8051	5.761602
374.9721	8.702218
375.1391	9.771589
375.3061	7.593091
375.473	7.678854
375.64	6.198196
375.8069	4.463029
375.9739	9.575297
376.1409	9.387749
376.3078	6.137738
376.4748	7.43134
376.6417	6.657679
376.8087	4.987048
376.9756	4.509322
377.1425	5.91354
377.3094	13.53001
377.4763	13.08805
377.6432	5.409177
377.8102	5.489658
377.9771	4.604246
378.144	5.872948
378.3109	7.467749
378.4777	10.25296
378.6446	9.565853
378.8115	10.63984
378.9784	5.914012
379.1452	9.022537
379.3121	6.311316
379.4789	9.151745
379.6458	7.489314
379.8127	7.868207
379.9795	9.759628
380.1463	7.971738
380.3131	5.127681
380.48	7.333008
380.6468	7.406916
380.8136	9.046156
380.9804	7.24556
381.1472	9.41455
381.314	10.33414
381.4808	7.077678
381.6476	7.174105
381.8144	9.369273
381.9812	6.885241
382.148	9.327976
382.3147	9.392175
382.4815	5.700373
382.6483	3.44522
382.815	5.125258
382.9818	11.28474
383.1485	8.943752
383.3153	9.831366
383.482	7.96644
383.6487	8.782665
383.8155	5.545126
383.9822	3.004438
384.1489	8.896218
384.3156	8.960819
384.4823	12.30189
384.649	10.41943
384.8157	14.33789
384.9824	3.392498
385.1491	11.12534
385.3158	9.884115
385.4825	12.31644
385.6491	12.10644
385.8158	10.52113
385.9825	9.984828
386.1491	10.57472
386.3157	7.833051
386.4824	7.227032
386.649	9.89313
386.8157	9.298863
386.9823	9.702316
387.1489	10.94531
387.3156	14.53689
387.4821	10.46612
387.6488	9.028669
387.8154	8.953392
387.982	7.081409
388.1486	7.645028
388.3152	8.168115
388.4818	10.55963
388.6483	10.41059
388.8149	9.56367
388.9815	8.270535
389.148	8.605494
389.3146	8.595017
389.4811	11.27763
389.6477	8.424562
389.8142	12.55472
389.9808	10.84971
390.1473	12.20867
390.3138	10.67912
390.4804	4.148165
390.6469	10.25768
390.8134	12.88301
390.9799	9.774466
391.1464	12.6741
391.3129	8.046158
391.4794	7.015795
391.6459	11.78024
391.8124	10.96254
391.9789	7.209689
392.1453	9.074442
392.3118	9.582216
392.4782	7.499701
392.6447	6.335687
392.8112	5.513854
392.9776	5.130257
393.144	8.422439
393.3105	6.979498
393.4769	9.987765
393.6433	6.975398
393.8098	7.578294
393.9762	9.03248
394.1426	10.36104
394.309	8.444565
394.4754	10.92297
394.6418	9.142088
394.8082	11.58035
394.9746	14.20856
395.141	12.19913
395.3073	15.17677
395.4737	12.23837
395.64	7.575278
395.8064	8.965335
395.9728	12.44241
396.1391	13.82994
396.3055	12.4849
396.4718	10.72364
396.6381	10.9567
396.8045	7.367146
396.9708	12.80136
397.1371	9.110328
397.3034	10.17888
397.4697	13.64194
397.636	7.825694
397.8023	8.447472
397.9686	12.71811
398.1349	14.59933
398.3012	10.56962
398.4675	11.39995
398.6337	12.53799
398.8	15.0234
398.9662	15.12691
399.1325	13.20774
399.2988	12.49907
399.465	9.58761
399.6313	12.51685
399.7975	17.09468
399.9637	15.21267
400.1299	13.29943
400.2961	13.44875
400.4624	11.88997
400.6286	13.68307
400.7948	15.77416
400.961	16.72761
401.1272	13.62676
401.2934	12.72686
401.4595	13.58329
401.6257	14.49552
401.7919	16.22022
401.9581	14.17364
402.1242	15.02421
402.2904	12.81676
402.4565	13.9563
402.6227	10.65454
402.7888	20.93908
402.955	14.51334
403.1211	10.52646
403.2872	11.75618
403.4533	15.07711
403.6194	21.1483
403.7856	16.66916
403.9517	16.3431
404.1177	14.43137
404.2838	11.90805
404.4499	11.88473
404.616	14.49488
404.7821	13.6191
404.9482	13.40569
405.1142	12.36375
405.2803	11.69298
405.4464	10.46337
405.6124	14.99185
405.7784	11.32827
405.9445	16.35818
406.1105	20.72101
406.2766	13.3253
406.4426	13.71536
406.6086	14.77089
406.7746	13.06945
406.9406	14.56386
407.1066	10.50676
407.2726	11.61033
407.4386	19.16567
407.6046	20.84105
407.7706	16.35555
407.9366	14.61051
408.1025	14.86422
408.2685	17.59361
408.4344	15.11101
408.6004	18.94574
408.7664	17.38356
408.9323	18.74111
409.0983	17.20477
409.2642	10.73569
409.4301	19.18155
409.596	22.22465
409.762	16.61479
409.9279	17.49337
410.0938	13.71929
410.2597	11.7101
410.4256	12.45077
410.5915	14.25333
410.7574	13.35369
410.9232	13.9123
411.0891	18.7426
411.255	22.72209
411.4209	20.20007
411.5867	23.83076
411.7526	23.714
411.9184	13.60953
412.0843	15.0746
412.2501	21.42576
412.4159	16.04622
412.5818	20.49062
412.7476	15.2134
412.9134	17.22664
413.0792	22.14105
413.245	24.33241
413.4108	18.04719
413.5766	15.11952
413.7424	17.60357
413.9082	20.99736
414.074	16.44339
414.2397	19.20204
414.4055	14.84589
414.5713	11.44533
414.737	14.61458
414.9028	11.93926
415.0685	17.354
415.2343	15.33226
415.4	14.10336
415.5658	18.57934
415.7315	16.75902
415.8972	14.38672
416.0629	16.82385
416.2286	18.56973
416.3943	20.03379
416.56	19.43323
416.7257	20.00786
416.8914	18.53466
417.0571	20.44199
417.2228	17.72708
417.3884	17.42025
417.5541	16.03867
417.7198	17.97523
417.8854	17.45754
418.0511	20.90904
418.2167	17.96448
418.3824	17.8845
418.548	18.40123
418.7136	13.47195
418.8792	11.76898
419.0449	17.31075
419.2105	17.24472
419.3761	21.34706
419.5417	18.74243
419.7073	17.51081
419.8729	19.76553
420.0385	17.89434
420.204	14.46568
420.3696	19.20993
420.5352	21.09091
420.7007	18.55335
420.8663	22.27594
421.0319	22.61288
421.1974	22.09883
421.3629	27.45383
421.5285	24.99736
421.694	17.20676
421.8595	22.19428
422.0251	22.84613
422.1906	21.81929
422.3561	19.90611
422.5216	18.74065
422.6871	19.45558
422.8526	23.00627
423.0181	23.82284
423.1835	19.40709
423.349	17.35063
423.5145	25.23665
423.68	22.43114
423.8454	24.68786
424.0109	22.56133
424.1763	23.61691
424.3418	23.67933
424.5072	19.36529
424.6726	20.12331
424.838	22.71387
425.0035	24.4453
425.1689	23.59997
425.3343	25.06872
425.4997	24.77452
425.6651	18.19759
425.8305	22.25163
425.9959	25.15537
426.1613	21.813
426.3267	21.32563
426.492	26.65595
426.6574	25.21239
426.8228	20.41455
426.9881	23.53856
427.1534	25.85348
427.3188	23.11134
427.4841	21.90888
427.6495	24.58756
427.8148	22.16607
427.9801	21.95087
428.1454	24.51881
428.3107	26.93634
428.476	25.42085
428.6414	21.29978
428.8066	23.34768
428.9719	21.00681
429.1372	24.3112
429.3025	26.20369
429.4678	24.06452
429.633	22.60317
429.7983	19.24753
429.9636	19.40086
430.1288	20.61169
430.294	21.93063
430.4593	23.179
430.6245	18.32647
430.7897	16.35735
430.955	21.63572
431.1202	23.03003
431.2854	21.41064
431.4506	19.75373
431.6158	23.5412
431.781	28.62354
431.9462	30.12159
432.1114	28.49217
432.2766	24.1383
432.4417	21.81198
432.6069	23.68741
432.772	23.95039
432.9372	27.7958
433.1024	27.95161
433.2675	28.43224
433.4326	27.92511
433.5977	23.68984
433.7629	23.601
433.928	26.84208
434.0931	22.44447
434.2582	21.94802
434.4233	25.55136
434.5884	23.92354
434.7535	31.79701
434.9186	34.66439
435.0837	30.88907
435.2488	30.91648
435.4138	27.0828
435.5789	21.41284
435.744	27.53069
435.909	27.09765
436.0741	28.12808
436.2391	27.62694
436.4042	32.2765
436.5692	28.86142
436.7342	28.68053
436.8992	28.38918
437.0643	30.7329
437.2293	22.67037
437.3943	29.94117
437.5593	31.75135
437.7243	31.84904
437.8893	31.6797
438.0542	31.00944
438.2192	27.32355
438.3842	27.15401
438.5491	25.66936
438.7141	28.46283
438.8791	28.10354
439.044	29.48112
439.209	30.90427
439.3739	31.41761
439.5388	31.13536
439.7037	30.94321
439.8687	33.80212
440.0336	35.77097
440.1985	34.66742
440.3634	32.30239
440.5283	22.07069
440.6932	29.27908
440.8581	28.11944
441.0229	33.82727
441.1878	30.38144
441.3527	33.39683
441.5175	33.28473
441.6824	32.74443
441.8472	33.80939
442.0121	33.22982
442.1769	33.39652
442.3418	33.02692
442.5066	32.01762
442.6714	32.94651
442.8362	34.84888
443.001	33.7923
443.1659	30.54359
443.3307	28.70759
443.4955	33.95928
443.6602	34.22619
443.825	32.74283
443.9898	33.50205
444.1546	31.3099
444.3193	33.66161
444.4841	33.32895
444.6488	32.6499
444.8136	34.23029
444.9783	31.37054
445.1431	35.47359
445.3078	35.64886
445.4725	31.23823
445.6372	28.67862
445.802	27.22019
445.9667	30.66238
446.1314	36.26455
446.2961	34.0057
446.4608	32.98589
446.6255	34.16117
446.7901	29.21883
446.9548	32.52705
447.1195	34.39249
447.2841	34.03002
447.4488	33.9268
447.6134	34.19961
447.7781	35.14477
447.9427	35.21826
448.1074	35.49895
448.272	37.48051
448.4366	36.05584
448.6012	37.14891
448.7658	36.46941
448.9305	34.21436
449.095	35.33851
449.2596	35.93309
449.4242	37.42241
449.5888	35.24852
449.7534	36.3733
449.9179	40.06598
450.0825	38.89724
450.2471	34.45562
450.4116	35.54545
450.5762	37.01806
450.7407	39.48517
450.9052	38.862
451.0698	41.72491
451.2343	41.19963
451.3988	34.7517
451.5633	35.15104
451.7278	37.6267
451.8923	39.06596
452.0568	40.14308
452.2213	38.07394
452.3858	42.09927
452.5503	40.86035
452.7148	35.09949
452.8792	38.0969
453.0437	37.24673
453.2081	36.0301
453.3726	34.6055
453.537	35.53472
453.7015	40.06939
453.8659	40.2801
454.0303	38.35599
454.1947	38.56391
454.3592	41.19686
454.5236	39.00034
454.688	39.20156
454.8524	40.75326
455.0168	39.4113
455.1811	38.68976
455.3455	37.61693
455.5099	34.95034
455.6743	40.01351
455.8386	45.89796
456.003	43.86162
456.1673	42.1356
456.3317	40.7677
456.496	43.17358
456.6603	45.72459
456.8246	36.3016
456.989	36.27547
457.1533	40.36441
457.3176	43.73175
457.4819	45.52757
457.6462	44.33273
457.8105	40.79453
457.9748	39.06427
458.1391	36.73339
458.3033	41.01134
458.4676	43.01198
458.6319	37.04084
458.7961	41.53029
458.9604	41.71912
459.1246	45.29429
459.2888	40.5712
459.4531	37.74536
459.6173	38.8884
459.7815	40.70597
459.9457	39.26767
460.11	40.03991
460.2741	40.20593
460.4384	38.41684
460.6025	38.75973
460.7667	37.47562
460.9309	37.86365
461.0951	38.78358
461.2592	38.19979
461.4234	37.37477
461.5876	41.26975
461.7517	38.25179
461.9159	41.5169
462.08	36.55008
462.2441	37.44595
462.4082	40.0518
462.5724	35.82573
462.7365	40.47614
462.9006	45.36548
463.0647	44.55707
463.2288	46.03277
463.3929	42.59739
463.557	40.17444
463.721	39.35278
463.8851	41.13663
464.0492	36.16168
464.2132	46.14186
464.3773	44.48616
464.5414	42.72143
464.7054	39.53927
464.8694	34.95779
465.0334	39.47713
465.1975	42.46606
465.3615	39.73807
465.5255	39.86079
465.6895	39.50864
465.8535	41.64125
466.0175	37.8142
466.1815	36.87637
466.3455	39.4383
466.5095	42.45608
466.6734	36.20535
466.8374	39.09475
467.0014	41.34849
467.1653	39.73344
467.3293	38.93951
467.4932	39.30677
467.6571	46.02444
467.8211	38.63153
467.985	35.72131
468.1489	40.15683
468.3128	43.85659
468.4767	38.04032
468.6406	38.45375
468.8045	38.50384
468.9684	40.4745
469.1323	43.54007
469.2962	40.4081
469.46	43.4654
469.6239	43.84987
469.7878	43.38066
469.9516	38.80986
470.1154	39.35167
470.2793	40.11821
470.4431	39.8945
470.607	41.77808
470.7708	40.1652
470.9346	43.5694
471.0984	42.17055
471.2622	47.12271
471.426	43.49666
471.5898	42.99171
471.7536	41.23927
471.9174	40.95369
472.0811	44.84587
472.2449	49.53068
472.4087	43.12763
472.5724	44.44859
472.7362	44.10227
472.8999	39.5066
473.0637	37.18854
473.2274	41.11389
473.3911	45.08808
473.5548	45.91883
473.7185	42.85624
473.8822	39.00293
474.0459	49.77642
474.2096	46.26151
474.3733	46.343
474.537	44.55821
474.7007	47.42643
474.8643	41.79682
475.028	42.16141
475.1917	40.69986
475.3553	40.7335
475.519	41.30954
475.6826	45.85813
475.8463	44.50811
476.0099	43.3333
476.1735	42.1759
476.3371	44.86357
476.5007	46.31242
476.6643	43.52594
476.8279	41.47826
476.9915	43.18494
477.1551	41.329
477.3187	43.20445
477.4823	46.65046
477.6458	47.11233
477.8094	44.53826
477.9729	41.16605
478.1365	43.13044
478.3	47.87544
478.4636	48.34763
478.6271	44.24275
478.7906	42.33416
478.9541	41.37848
479.1176	41.35862
479.2812	44.19199
479.4447	48.08813
479.6082	47.84044
479.7716	48.18643
479.9351	46.48434
480.0986	42.58687
480.2621	43.47123
480.4255	45.37764
480.589	42.73427
480.7524	39.12987
480.9159	42.75384
481.0793	43.23692
481.2428	45.67165
481.4062	42.44395
481.5696	46.92757
481.733	42.41222
481.8964	39.77566
482.0598	40.32294
482.2232	42.69484
482.3866	45.41788
482.55	41.4039
482.7134	44.47312
482.8768	49.19795
483.0401	44.13752
483.2035	46.03088
483.3668	44.88977
483.5302	46.82895
483.6935	44.35555
483.8568	45.89466
484.0202	43.62084
484.1835	40.40713
484.3468	39.4856
484.5101	37.68586
484.6734	45.35962
484.8367	43.38373
485	41.82183
485.1633	41.08252
485.3266	43.09525
485.4899	43.126
485.6531	42.42206
485.8164	40.85695
485.9796	37.34681
486.1429	37.70279
486.3061	36.42249
486.4694	35.84583
486.6326	39.46133
486.7958	48.11616
486.959	40.64721
487.1223	42.3072
487.2855	44.88363
487.4486	39.81556
487.6118	42.56948
487.775	44.00688
487.9382	45.8505
488.1014	46.60189
488.2646	43.99736
488.4277	46.38377
488.5909	45.42263
488.754	41.67809
488.9171	46.20359
489.0803	46.10596
489.2434	40.55869
489.4066	44.51917
489.5697	49.63029
489.7328	51.90291
489.8959	47.07371
490.059	41.22446
490.2221	46.01091
490.3852	44.1037
490.5482	47.24831
490.7113	47.61237
490.8744	40.4819
491.0374	44.74975
491.2005	43.5784
491.3636	42.69342
491.5266	45.93418
491.6896	47.10847
491.8527	44.72539
492.0157	38.05162
492.1787	41.37984
492.3417	40.96934
492.5047	41.11763
492.6677	48.90329
492.8307	44.44207
492.9937	43.72765
493.1567	48.58067
493.3196	45.51891
493.4826	46.1924
493.6456	45.22844
493.8085	44.88898
493.9715	50.09227
494.1344	45.562
494.2974	46.13785
494.4603	48.0568
494.6232	48.45085
494.7861	51.02432
494.949	48.9866
495.1119	49.15968
495.2748	46.62842
495.4377	48.64031
495.6006	43.97004
495.7635	44.51331
495.9264	45.85767
496.0892	42.65678
496.2521	48.93928
496.4149	47.47473
496.5778	46.7492
496.7407	43.69132
496.9035	48.01712
497.0663	50.3119
497.2291	47.68735
497.3919	44.46194
497.5547	47.48207
497.7176	44.37646
497.8804	50.47477
498.0432	46.945
498.2059	48.08612
498.3687	41.98109
498.5315	46.07999
498.6942	45.30209
498.857	53.93993
499.0198	50.91175
499.1825	51.8568
499.3452	47.78444
499.508	44.79177
499.6707	42.7864
499.8334	42.15504
499.9962	48.80242
500.1589	45.7225
500.3216	44.39305
500.4843	46.84352
500.6469	42.37405
500.8096	51.79381
500.9723	45.16198
501.135	43.78289
501.2976	44.0111
501.4603	43.3462
501.623	51.52796
501.7856	43.73206
501.9482	45.52832
502.1109	44.91042
502.2735	44.80276
502.4361	47.91761
502.5987	47.55577
502.7614	45.45155
502.924	45.97716
503.0865	52.81952
503.2491	55.97686
503.4117	47.53354
503.5743	45.22741
503.7368	43.53478
503.8994	44.93822
504.062	45.40434
504.2245	42.89905
504.3871	45.83497
504.5496	50.23835
504.7121	49.41122
504.8746	55.55595
505.0372	46.25215
505.1997	47.48936
505.3622	47.3642
505.5247	51.60006
505.6872	50.04282
505.8497	52.90273
506.0121	46.01994
506.1746	50.35561
506.3371	49.26161
506.4995	52.93248
506.662	53.05774
506.8244	49.90614
506.9869	51.91136
507.1493	50.20214
507.3117	49.3234
507.4742	51.18972
507.6366	51.29264
507.799	45.9971
507.9614	48.43648
508.1238	44.34343
508.2862	47.22109
508.4485	50.54056
508.6109	50.06618
508.7733	50.76688
508.9357	50.75871
509.098	54.80253
509.2604	54.65257
509.4227	51.9768
509.5851	53.45457
509.7474	53.90945
509.9097	52.3557
510.072	52.58798
510.2343	48.92238
510.3966	52.32001
510.5589	52.58041
510.7212	54.73779
510.8835	55.10046
511.0458	54.31164
511.2081	54.76454
511.3703	58.59803
511.5326	54.42004
511.6949	54.7271
511.8571	57.14574
512.0193	56.48021
512.1816	54.95555
512.3438	55.84441
512.506	55.42419
512.6682	50.07713
512.8304	51.10133
512.9926	52.27809
513.1548	53.40098
513.317	52.47923
513.4792	52.8226
513.6414	52.37438
513.8035	50.57993
513.9657	53.40706
514.1279	52.99334
514.29	53.89587
514.4521	59.22871
514.6143	51.58786
514.7764	55.38397
514.9385	56.47473
515.1006	61.53754
515.2628	60.84413
515.4249	52.69197
515.587	53.66745
515.7491	57.83763
515.9111	61.21867
516.0732	57.29399
516.2353	58.98151
516.3973	56.98533
