SPECTRUM DATA FILE
SpectrumCount:	1
PixelCount:	3648
UserName:	ToughBook User
SampleName:	
LightSource:	
Comments:	
DeviceName:	Qwave
DeviceManufacturer:	Broadcom
DeviceSerialNo:	11311

Name:	last spectrum
Date:	2024-05-02T15:06:02.7764581+02:00
ExposureTime:	0.02
TemporalAvg:	1
IntensityUnit:	normalizedCounts
CCDLoadLevel:	0.03231981
Temperature:	28.38461
DiagramColor:	200
ProcessingSteps:	335

Wavelength [nm]	Intensity1
334.421	3.104406
334.5891	-0.5783047
334.7573	0.8751043
334.9254	-0.8262828
335.0935	2.871399
335.2616	4.451134
335.4297	-1.585764
335.5978	3.128395
335.7659	4.29002
335.934	1.5363
336.1021	-0.5582195
336.2701	1.440905
336.4382	2.043603
336.6063	2.948049
336.7744	1.801775
336.9424	-1.116191
337.1105	-1.428231
337.2785	7.447406
337.4466	0.3533717
337.6146	4.95903
337.7827	6.281434
337.9507	3.32361
338.1187	4.172607
338.2867	7.311454
338.4548	5.740504
338.6228	5.286467
338.7908	1.532969
338.9588	-0.5348208
339.1268	1.55512
339.2948	1.146272
339.4628	4.987319
339.6308	1.20119
339.7988	1.391224
339.9667	5.92079
340.1347	6.398304
340.3027	0.1626515
340.4707	7.152662
340.6386	7.336068
340.8066	4.835615
340.9745	2.923715
341.1425	4.734686
341.3104	3.404856
341.4784	5.812614
341.6463	5.891355
341.8142	4.696392
341.9821	0.7242463
342.1501	1.219093
342.318	2.627195
342.4859	5.031111
342.6538	5.037333
342.8217	4.473818
342.9896	5.131902
343.1575	1.121509
343.3254	1.961487
343.4933	0.5837013
343.6612	2.102037
343.829	3.324852
343.9969	2.910337
344.1648	0.946032
344.3326	3.783933
344.5005	9.138536
344.6683	5.208045
344.8362	5.203476
345.004	5.752656
345.1719	3.230963
345.3397	-1.51254
345.5075	4.61822
345.6754	4.200483
345.8432	4.971195
346.011	7.57288
346.1788	1.293668
346.3466	-1.59643
346.5144	3.140793
346.6822	2.162383
346.85	7.777533
347.0178	6.844585
347.1856	4.701026
347.3534	1.932755
347.5211	3.637983
347.6889	1.698297
347.8567	5.485821
348.0244	3.681666
348.1922	7.06439
348.3599	4.576159
348.5277	-0.8454199
348.6954	3.682048
348.8632	4.510556
349.0309	6.460066
349.1986	6.596732
349.3663	4.120777
349.5341	4.336508
349.7018	5.460401
349.8695	4.50463
350.0372	3.650049
350.2049	1.002965
350.3726	4.152527
350.5403	8.078859
350.7079	5.444186
350.8756	6.888247
351.0433	5.612322
351.211	5.900092
351.3786	3.901409
351.5463	3.411794
351.714	3.850736
351.8816	4.928625
352.0493	5.313124
352.2169	7.215855
352.3846	5.810249
352.5522	0.7656045
352.7198	6.547466
352.8875	7.232324
353.0551	5.489338
353.2227	1.789054
353.3903	3.945838
353.5579	7.931029
353.7255	10.35251
353.8931	0.3240039
354.0607	5.38796
354.2283	0.4034998
354.3958	3.430079
354.5634	4.355586
354.731	7.686527
354.8986	3.879939
355.0661	7.295814
355.2337	2.025947
355.4012	5.119936
355.5688	2.017721
355.7363	3.320327
355.9039	6.306186
356.0714	7.204239
356.239	4.352085
356.4065	4.254154
356.574	8.6591
356.7415	4.779915
356.909	7.927041
357.0765	3.854949
357.244	6.360538
357.4115	5.458728
357.579	5.204781
357.7465	2.270477
357.914	3.153478
358.0815	4.626372
358.249	2.358445
358.4164	6.723492
358.5839	6.217248
358.7513	4.553601
358.9188	3.704025
359.0862	-0.7353379
359.2537	3.656541
359.4211	6.736311
359.5886	7.045111
359.756	7.418069
359.9234	3.664086
360.0909	5.437818
360.2583	6.026797
360.4257	4.384039
360.5931	5.528963
360.7605	3.132812
360.9279	6.623638
361.0953	3.026747
361.2627	3.99284
361.4301	7.913814
361.5974	3.85667
361.7648	3.775945
361.9322	4.459984
362.0995	2.813291
362.2669	3.341027
362.4343	6.500638
362.6016	8.539731
362.769	4.815056
362.9363	8.793879
363.1036	4.585768
363.271	6.868301
363.4383	5.591618
363.6056	6.192386
363.7729	4.49981
363.9402	6.082017
364.1075	8.641893
364.2748	3.851852
364.4421	8.696152
364.6094	9.419933
364.7767	6.907307
364.944	6.089553
365.1113	6.935842
365.2786	4.54932
365.4458	3.165393
365.6131	8.719518
365.7803	4.778885
365.9476	3.740609
366.1148	5.70777
366.2821	8.10069
366.4493	6.903323
366.6166	4.347653
366.7838	7.077842
366.951	6.41289
367.1182	4.704499
367.2855	3.056179
367.4527	6.18048
367.6199	5.534857
367.7871	4.481802
367.9543	5.193536
368.1215	2.327688
368.2886	3.701038
368.4558	9.016167
368.623	8.693682
368.7902	5.669628
368.9573	7.493025
369.1245	10.47451
369.2917	6.876334
369.4588	5.91854
369.6259	9.214256
369.7931	7.178628
369.9602	6.159778
370.1274	6.831415
370.2945	7.400355
370.4616	10.06835
370.6287	4.382042
370.7958	3.56889
370.963	10.68751
371.1301	7.228543
371.2971	6.407253
371.4643	7.90302
371.6313	10.0552
371.7984	7.689045
371.9655	2.494121
372.1326	6.088118
372.2997	5.673923
372.4667	6.647404
372.6338	5.457823
372.8008	6.78125
372.9679	4.357841
373.1349	9.316051
373.3019	7.749638
373.469	3.250885
373.636	7.121224
373.803	7.745566
373.9701	1.824282
374.1371	-0.4175308
374.3041	5.128004
374.4711	5.840248
374.6381	-1.356292
374.8051	5.760506
374.9721	1.837652
375.1391	5.544542
375.3061	4.558518
375.473	5.807521
375.64	9.24635
375.8069	2.388297
375.9739	5.212857
376.1409	6.272316
376.3078	8.822891
376.4748	10.24149
376.6417	8.812159
376.8087	7.861617
376.9756	4.0995
377.1425	6.509321
377.3094	9.032727
377.4763	5.933165
377.6432	3.621355
377.8102	11.65433
377.9771	11.12312
378.144	8.195786
378.3109	11.7176
378.4777	7.890063
378.6446	6.072011
378.8115	8.084051
378.9784	6.297142
379.1452	9.397211
379.3121	6.126177
379.4789	8.135327
379.6458	6.127507
379.8127	3.496964
379.9795	2.315532
380.1463	8.435036
380.3131	8.284255
380.48	8.048927
380.6468	8.145628
380.8136	8.510812
380.9804	2.729096
381.1472	5.437067
381.314	6.419623
381.4808	5.910403
381.6476	5.412827
381.8144	10.74436
381.9812	10.49366
382.148	9.055536
382.3147	6.046717
382.4815	4.307216
382.6483	1.646283
382.815	3.115657
382.9818	5.915889
383.1485	6.463723
383.3153	9.67815
383.482	7.0049
383.6487	6.547648
383.8155	4.474267
383.9822	5.373323
384.1489	9.289718
384.3156	8.676293
384.4823	10.79121
384.649	5.284271
384.8157	6.466086
384.9824	3.818827
385.1491	6.259085
385.3158	11.31704
385.4825	11.60995
385.6491	7.593648
385.8158	4.37383
385.9825	9.578063
386.1491	7.195303
386.3157	8.545008
386.4824	10.32827
386.649	8.971943
386.8157	6.418651
386.9823	6.310661
387.1489	7.243738
387.3156	8.875738
387.4821	7.897918
387.6488	6.397742
387.8154	6.443539
387.982	13.21275
388.1486	8.17862
388.3152	7.677434
388.4818	9.140418
388.6483	10.90523
388.8149	10.57241
388.9815	4.292981
389.148	1.94041
389.3146	4.823635
389.4811	10.89523
389.6477	12.15307
389.8142	13.04451
389.9808	8.523447
390.1473	7.167902
390.3138	7.681845
390.4804	5.993588
390.6469	6.362485
390.8134	8.598207
390.9799	7.126268
391.1464	9.634453
391.3129	10.29551
391.4794	12.95562
391.6459	9.315661
391.8124	9.088192
391.9789	12.08696
392.1453	10.56881
392.3118	7.313829
392.4782	6.549729
392.6447	7.462912
392.8112	7.863224
392.9776	7.769293
393.144	4.645155
393.3105	5.931727
393.4769	5.59581
393.6433	7.745422
393.8098	5.392616
393.9762	8.081796
394.1426	9.448394
394.309	9.452979
394.4754	10.64823
394.6418	12.69425
394.8082	10.99789
394.9746	10.54261
395.141	7.311194
395.3073	10.8668
395.4737	12.86022
395.64	9.413087
395.8064	6.70907
395.9728	12.96486
396.1391	5.027833
396.3055	7.883733
396.4718	12.25492
396.6381	6.226032
396.8045	8.82493
396.9708	8.133655
397.1371	7.648183
397.3034	12.16537
397.4697	11.56935
397.636	12.50231
397.8023	12.28932
397.9686	5.093668
398.1349	8.328176
398.3012	13.79241
398.4675	18.47266
398.6337	14.40069
398.8	9.723444
398.9662	10.45243
399.1325	9.272282
399.2988	13.86062
399.465	10.11273
399.6313	13.82488
399.7975	13.08864
399.9637	7.893858
400.1299	11.88978
400.2961	12.47549
400.4624	13.29164
400.6286	12.78126
400.7948	12.09133
400.961	15.14231
401.1272	12.7325
401.2934	16.00015
401.4595	13.78072
401.6257	12.27328
401.7919	14.85003
401.9581	10.01229
402.1242	11.95263
402.2904	14.33903
402.4565	16.2517
402.6227	15.79546
402.7888	14.53636
402.955	9.815583
403.1211	11.5522
403.2872	12.22608
403.4533	9.578759
403.6194	7.061453
403.7856	14.08115
403.9517	14.03874
404.1177	13.9774
404.2838	14.4854
404.4499	12.25197
404.616	13.0281
404.7821	12.78148
404.9482	11.67272
405.1142	13.28239
405.2803	10.67967
405.4464	12.85526
405.6124	13.72626
405.7784	11.02713
405.9445	12.02518
406.1105	12.95537
406.2766	16.67912
406.4426	14.47824
406.6086	14.51542
406.7746	11.58353
406.9406	17.03401
407.1066	12.88049
407.2726	17.4604
407.4386	17.79337
407.6046	16.68502
407.7706	13.44838
407.9366	14.30637
408.1025	16.94694
408.2685	17.20239
408.4344	18.4065
408.6004	20.66439
408.7664	20.31011
408.9323	18.24817
409.0983	17.21822
409.2642	16.26009
409.4301	15.60383
409.596	14.7252
409.762	14.97625
409.9279	14.19314
410.0938	16.94802
410.2597	18.67766
410.4256	18.39559
410.5915	19.79323
410.7574	15.98023
410.9232	20.6154
411.0891	13.60902
411.255	15.16428
411.4209	17.02767
411.5867	19.94741
411.7526	15.94585
411.9184	18.96634
412.0843	17.60808
412.2501	17.444
412.4159	15.6177
412.5818	14.63562
412.7476	15.41167
412.9134	18.47346
413.0792	18.09826
413.245	16.15201
413.4108	21.96747
413.5766	19.35993
413.7424	20.71547
413.9082	17.70567
414.074	17.96313
414.2397	14.54035
414.4055	17.79577
414.5713	16.79594
414.737	18.42795
414.9028	13.66128
415.0685	19.94909
415.2343	20.85845
415.4	21.39454
415.5658	17.49991
415.7315	14.59578
415.8972	14.29884
416.0629	18.07764
416.2286	17.82199
416.3943	21.36991
416.56	18.30588
416.7257	15.77308
416.8914	17.59584
417.0571	19.02424
417.2228	19.30636
417.3884	16.0303
417.5541	15.40958
417.7198	21.57797
417.8854	20.041
418.0511	18.33899
418.2167	17.34126
418.3824	21.56749
418.548	18.94705
418.7136	16.40273
418.8792	18.46134
419.0449	18.95753
419.2105	18.63383
419.3761	22.63653
419.5417	21.85217
419.7073	19.52696
419.8729	19.89554
420.0385	23.21309
420.204	20.60197
420.3696	19.3996
420.5352	17.35165
420.7007	21.28192
420.8663	19.45378
421.0319	22.07747
421.1974	20.29697
421.3629	19.33982
421.5285	20.22241
421.694	24.85586
421.8595	26.09494
422.0251	24.02332
422.1906	24.08529
422.3561	22.48606
422.5216	21.20414
422.6871	18.85402
422.8526	20.71612
423.0181	21.14543
423.1835	20.92218
423.349	21.00413
423.5145	19.31771
423.68	21.73168
423.8454	25.41922
424.0109	22.69288
424.1763	28.08479
424.3418	26.34373
424.5072	21.413
424.6726	22.58543
424.838	17.09895
425.0035	20.76453
425.1689	24.09924
425.3343	29.72861
425.4997	26.25861
425.6651	25.10425
425.8305	27.39636
425.9959	25.14777
426.1613	20.98728
426.3267	22.3481
426.492	24.38546
426.6574	24.40442
426.8228	26.38958
426.9881	23.44333
427.1534	21.47927
427.3188	18.19142
427.4841	23.25734
427.6495	16.13001
427.8148	25.04071
427.9801	22.97767
428.1454	24.9128
428.3107	20.8482
428.476	22.69544
428.6414	21.99539
428.8066	23.23236
428.9719	25.57541
429.1372	23.3286
429.3025	22.26666
429.4678	24.5728
429.633	23.284
429.7983	26.13161
429.9636	18.23847
430.1288	16.80888
430.294	15.90336
430.4593	17.38416
430.6245	19.96046
430.7897	17.02708
430.955	19.7163
431.1202	25.13409
431.2854	20.17611
431.4506	25.25907
431.6158	27.24116
431.781	27.49712
431.9462	28.98385
432.1114	31.48305
432.2766	25.1825
432.4417	21.16695
432.6069	24.0772
432.772	26.3116
432.9372	27.0073
433.1024	26.49652
433.2675	25.74369
433.4326	25.618
433.5977	23.87926
433.7629	20.35732
433.928	19.58767
434.0931	21.05056
434.2582	19.14886
434.4233	23.0582
434.5884	28.99952
434.7535	24.02555
434.9186	25.24666
435.0837	31.07681
435.2488	31.22849
435.4138	29.10389
435.5789	29.46964
435.744	29.00696
435.909	26.50917
436.0741	28.01429
436.2391	26.55
436.4042	30.23334
436.5692	30.73417
436.7342	31.64406
436.8992	34.41404
437.0643	31.60629
437.2293	26.09126
437.3943	29.0529
437.5593	30.86381
437.7243	30.03984
437.8893	33.81345
438.0542	31.31176
438.2192	28.33551
438.3842	23.7741
438.5491	28.01061
438.7141	28.14882
438.8791	28.84241
439.044	31.14678
439.209	28.35698
439.3739	30.29432
439.5388	35.70568
439.7037	38.83652
439.8687	31.32516
440.0336	28.32141
440.1985	27.72875
440.3634	30.23895
440.5283	31.00121
440.6932	34.82957
440.8581	36.11612
441.0229	28.73421
441.1878	31.01391
441.3527	35.87697
441.5175	33.90533
441.6824	35.96467
441.8472	31.85913
442.0121	35.61201
442.1769	34.64578
442.3418	34.15478
442.5066	34.16632
442.6714	33.157
442.8362	37.2959
443.001	32.79184
443.1659	31.37681
443.3307	32.58429
443.4955	33.26233
443.6602	34.24018
443.825	38.56828
443.9898	43.43219
444.1546	33.7039
444.3193	36.95116
444.4841	39.60278
444.6488	37.20254
444.8136	39.65982
444.9783	39.72028
445.1431	33.35214
445.3078	33.92638
445.4725	29.59935
445.6372	33.49793
445.802	35.47534
445.9667	33.25241
446.1314	35.04311
446.2961	37.07949
446.4608	33.29382
446.6255	36.61909
446.7901	32.61304
446.9548	35.27893
447.1195	33.58948
447.2841	36.0057
447.4488	41.36322
447.6134	42.35653
447.7781	39.50127
447.9427	39.00686
448.1074	34.56062
448.272	33.72184
448.4366	35.68544
448.6012	33.49016
448.7658	41.02968
448.9305	42.52671
449.095	38.66431
449.2596	37.8831
449.4242	41.38109
449.5888	34.35433
449.7534	34.62291
449.9179	38.87432
450.0825	38.7959
450.2471	38.96354
450.4116	40.88878
450.5762	42.02054
450.7407	45.26898
450.9052	36.55784
451.0698	40.42919
451.2343	40.09711
451.3988	41.82701
451.5633	35.92833
451.7278	34.229
451.8923	38.52341
452.0568	37.58206
452.2213	40.94192
452.3858	38.36588
452.5503	39.03011
452.7148	34.24006
452.8792	34.14573
453.0437	37.67323
453.2081	35.1633
453.3726	42.07017
453.537	42.63952
453.7015	39.29262
453.8659	39.1823
454.0303	45.5481
454.1947	41.88933
454.3592	45.23633
454.5236	37.07885
454.688	38.5892
454.8524	41.0707
455.0168	34.42576
455.1811	38.07489
455.3455	40.6246
455.5099	43.01641
455.6743	45.6039
455.8386	40.32062
456.003	40.35695
456.1673	39.55731
456.3317	41.40339
456.496	43.72254
456.6603	37.29699
456.8246	45.81942
456.989	43.51506
457.1533	40.37627
457.3176	41.83164
457.4819	42.178
457.6462	40.80253
457.8105	41.4422
457.9748	40.00931
458.1391	43.44025
458.3033	36.46026
458.4676	39.47807
458.6319	40.89379
458.7961	46.22439
458.9604	48.80184
459.1246	45.0959
459.2888	43.37851
459.4531	44.99792
459.6173	44.2474
459.7815	43.60717
459.9457	42.15057
460.11	38.30391
460.2741	36.43639
460.4384	43.73661
460.6025	44.15453
460.7667	40.82101
460.9309	47.08001
461.0951	45.45355
461.2592	44.96313
461.4234	41.5145
461.5876	43.4772
461.7517	42.43959
461.9159	40.64774
462.08	40.52184
462.2441	40.78574
462.4082	44.26719
462.5724	44.24017
462.7365	45.04884
462.9006	40.32475
463.0647	40.50963
463.2288	46.99897
463.3929	45.30324
463.557	41.06233
463.721	42.79665
463.8851	42.75667
464.0492	44.3252
464.2132	42.82649
464.3773	41.17731
464.5414	41.48671
464.7054	42.8239
464.8694	39.95194
465.0334	40.25946
465.1975	42.03193
465.3615	46.08218
465.5255	43.41488
465.6895	41.75897
465.8535	42.41742
466.0175	45.36972
466.1815	49.60068
466.3455	43.54645
466.5095	44.9747
466.6734	43.53206
466.8374	45.41175
467.0014	42.37761
467.1653	45.56608
467.3293	45.16357
467.4932	44.53075
467.6571	45.47215
467.8211	44.87491
467.985	46.93504
468.1489	42.23365
468.3128	43.95976
468.4767	46.30746
468.6406	47.13661
468.8045	43.05365
468.9684	43.49517
469.1323	45.52976
469.2962	48.48506
469.46	46.23585
469.6239	42.50687
469.7878	42.82901
469.9516	44.20426
470.1154	43.87857
470.2793	41.47864
470.4431	38.73217
470.607	39.56494
470.7708	41.06195
470.9346	45.06354
471.0984	43.55831
471.2622	41.54588
471.426	39.87913
471.5898	43.61125
471.7536	47.47622
471.9174	49.98644
472.0811	48.72395
472.2449	44.16684
472.4087	45.91249
472.5724	45.44991
472.7362	49.23568
472.8999	46.9484
473.0637	45.81856
473.2274	43.03791
473.3911	44.30676
473.5548	51.08812
473.7185	52.65478
473.8822	47.41165
474.0459	46.15221
474.2096	43.04203
474.3733	45.74453
474.537	51.36301
474.7007	51.68195
474.8643	44.95535
475.028	41.0634
475.1917	48.3264
475.3553	48.26301
475.519	46.17028
475.6826	42.98129
475.8463	40.45548
476.0099	47.01679
476.1735	47.61755
476.3371	44.27456
476.5007	46.02862
476.6643	45.85814
476.8279	45.64612
476.9915	47.94936
477.1551	44.05753
477.3187	44.64905
477.4823	47.15783
477.6458	51.64753
477.8094	51.78865
477.9729	45.31476
478.1365	49.36201
478.3	47.27646
478.4636	46.68961
478.6271	45.36616
478.7906	43.71731
478.9541	42.95444
479.1176	47.91487
479.2812	48.06635
479.4447	50.55748
479.6082	53.2622
479.7716	43.45089
479.9351	43.44624
480.0986	45.03895
480.2621	49.86919
480.4255	45.70976
480.589	50.65809
480.7524	49.6419
480.9159	47.22426
481.0793	43.63987
481.2428	44.34261
481.4062	40.28751
481.5696	43.20565
481.733	47.11408
481.8964	51.15324
482.0598	47.56905
482.2232	46.01131
482.3866	51.30116
482.55	50.60925
482.7134	44.87247
482.8768	46.08194
483.0401	45.57455
483.2035	45.46214
483.3668	44.80839
483.5302	45.31681
483.6935	43.79554
483.8568	47.48444
484.0202	44.85559
484.1835	46.47849
484.3468	47.99521
484.5101	42.51744
484.6734	46.7897
484.8367	46.40818
485	43.5155
485.1633	44.59549
485.3266	47.27301
485.4899	44.73166
485.6531	43.07247
485.8164	43.79679
485.9796	41.85046
486.1429	36.27906
486.3061	40.64388
486.4694	39.40102
486.6326	41.13417
486.7958	44.47908
486.959	44.03214
487.1223	39.91944
487.2855	41.60162
487.4486	46.23399
487.6118	43.72773
487.775	49.07671
487.9382	47.60963
488.1014	43.94742
488.2646	50.41125
488.4277	46.19616
488.5909	41.57269
488.754	38.81433
488.9171	41.54833
489.0803	50.07442
489.2434	46.05686
489.4066	45.80568
489.5697	52.63884
489.7328	47.30355
489.8959	45.85175
490.059	51.39394
490.2221	48.1561
490.3852	49.58376
490.5482	48.77264
490.7113	52.69485
490.8744	49.95665
491.0374	46.68982
491.2005	47.45737
491.3636	54.1447
491.5266	49.94266
491.6896	48.3564
491.8527	48.14709
492.0157	46.15455
492.1787	42.11686
492.3417	43.44326
492.5047	46.99385
492.6677	45.10405
492.8307	50.81012
492.9937	52.96086
493.1567	52.48299
493.3196	51.78952
493.4826	48.95951
493.6456	46.55711
493.8085	43.88678
493.9715	47.44943
494.1344	47.92864
494.2974	49.33609
494.4603	46.32641
494.6232	47.12276
494.7861	51.14117
494.949	51.24781
495.1119	49.16265
495.2748	49.08237
495.4377	50.98457
495.6006	48.3484
495.7635	46.85683
495.9264	43.73902
496.0892	48.10829
496.2521	51.2716
496.4149	57.02657
496.5778	56.79185
496.7407	53.7225
496.9035	47.1151
497.0663	50.61474
497.2291	51.90147
497.3919	53.7498
497.5547	53.15056
497.7176	50.23726
497.8804	46.94209
498.0432	48.0585
498.2059	52.42418
498.3687	47.56279
498.5315	43.43012
498.6942	45.40555
498.857	49.66688
499.0198	53.18023
499.1825	48.28535
499.3452	52.13363
499.508	52.11242
499.6707	54.17062
499.8334	50.72369
499.9962	46.72462
500.1589	47.83953
500.3216	50.69224
500.4843	50.2789
500.6469	47.13564
500.8096	47.13306
500.9723	48.30428
501.135	47.78428
501.2976	47.3701
501.4603	45.33712
501.623	48.81454
501.7856	51.36926
501.9482	50.2233
502.1109	52.44449
502.2735	53.71727
502.4361	56.61306
502.5987	56.90924
502.7614	47.53386
502.924	52.0829
503.0865	51.91286
503.2491	53.29209
503.4117	54.98418
503.5743	49.87681
503.7368	52.83389
503.8994	51.46756
504.062	45.13831
504.2245	50.81134
504.3871	52.81897
504.5496	56.39847
504.7121	55.95662
504.8746	56.69565
505.0372	56.26714
505.1997	49.94983
505.3622	51.57799
505.5247	54.79497
505.6872	53.1472
505.8497	55.7375
506.0121	58.40469
506.1746	58.49046
506.3371	57.13656
506.4995	56.57419
506.662	52.29606
506.8244	50.87231
506.9869	59.66492
507.1493	58.94801
507.3117	55.76805
507.4742	57.57645
507.6366	59.51858
507.799	60.89923
507.9614	58.05732
508.1238	53.79267
508.2862	49.5623
508.4485	50.76496
508.6109	59.85574
508.7733	59.61033
508.9357	58.32422
509.098	56.89035
509.2604	59.14249
509.4227	64.85134
509.5851	62.08262
509.7474	60.06274
509.9097	59.13733
510.072	55.49149
510.2343	57.31231
510.3966	60.03817
510.5589	61.82474
510.7212	61.14558
510.8835	61.65845
511.0458	63.21252
511.2081	58.51981
511.3703	64.10484
511.5326	64.49386
511.6949	66.48211
511.8571	59.19153
512.0193	66.87543
512.1816	65.12428
512.3438	68.36983
512.506	64.2124
512.6682	59.38048
512.8304	61.01231
512.9926	57.60015
513.1548	58.84172
513.317	59.15486
513.4792	60.32292
513.6414	63.05294
513.8035	65.75722
513.9657	63.99889
514.1279	61.83087
514.29	61.39137
514.4521	60.35776
514.6143	66.2683
514.7764	67.09396
514.9385	60.16873
515.1006	65.44511
515.2628	64.1581
515.4249	63.88525
515.587	67.40742
515.7491	63.9091
515.9111	63.18062
516.0732	69.05925
516.2353	71.86759
