SPECTRUM DATA FILE
SpectrumCount:	1
PixelCount:	3648
UserName:	ToughBook User
SampleName:	
LightSource:	
Comments:	
DeviceName:	Qwave
DeviceManufacturer:	Broadcom
DeviceSerialNo:	11311

Name:	last spectrum
Date:	2024-05-02T15:07:39.4299580+02:00
ExposureTime:	0.02
TemporalAvg:	1
IntensityUnit:	normalizedCounts
CCDLoadLevel:	0.02417305
Temperature:	27.96298
DiagramColor:	200
ProcessingSteps:	335

Wavelength [nm]	Intensity1
334.421	3.799086
334.5891	7.132984
334.7573	0.1960487
334.9254	1.272628
335.0935	4.863329
335.2616	3.839251
335.4297	5.798947
335.5978	2.012008
335.7659	2.236728
335.934	5.450128
336.1021	7.06313
336.2701	5.9789
336.4382	6.756075
336.6063	7.988411
336.7744	0.6775241
336.9424	6.717905
337.1105	8.6061
337.2785	6.858986
337.4466	8.796527
337.6146	8.290544
337.7827	4.684973
337.9507	7.203961
338.1187	3.890739
338.2867	2.882783
338.4548	1.664772
338.6228	1.221044
338.7908	1.164674
338.9588	-1.317217
339.1268	4.007744
339.2948	6.151123
339.4628	4.821171
339.6308	1.515562
339.7988	3.620333
339.9667	3.649245
340.1347	3.565662
340.3027	2.554731
340.4707	5.957479
340.6386	9.345612
340.8066	4.666488
340.9745	1.914131
341.1425	5.412124
341.3104	4.650775
341.4784	5.168057
341.6463	4.666933
341.8142	2.422417
341.9821	0.9432182
342.1501	1.729947
342.318	2.752252
342.4859	5.348812
342.6538	6.454936
342.8217	4.988111
342.9896	4.652348
343.1575	6.761729
343.3254	9.614048
343.4933	8.024981
343.6612	6.328194
343.829	2.227477
343.9969	3.667454
344.1648	1.275958
344.3326	5.782711
344.5005	3.047096
344.6683	8.45842
344.8362	7.298026
345.004	3.174798
345.1719	1.064171
345.3397	3.319113
345.5075	8.585344
345.6754	4.952354
345.8432	1.486247
346.011	1.48692
346.1788	1.609473
346.3466	5.824715
346.5144	5.495313
346.6822	5.974803
346.85	5.596076
347.0178	0.626632
347.1856	4.616957
347.3534	2.134613
347.5211	3.553121
347.6889	6.826685
347.8567	8.132961
348.0244	6.235652
348.1922	6.422311
348.3599	10.05486
348.5277	7.956635
348.6954	8.005718
348.8632	6.395109
349.0309	-2.248361
349.1986	4.200368
349.3663	4.957855
349.5341	-0.580306
349.7018	6.400897
349.8695	4.707966
350.0372	-0.7373778
350.2049	3.124735
350.3726	3.072986
350.5403	3.966563
350.7079	6.101385
350.8756	6.051187
351.0433	4.220374
351.211	4.78751
351.3786	1.063676
351.5463	2.299528
351.714	4.155996
351.8816	0.6008063
352.0493	3.49013
352.2169	7.130188
352.3846	0.9944682
352.5522	6.130335
352.7198	5.477824
352.8875	3.751658
353.0551	3.803849
353.2227	4.037716
353.3903	6.598743
353.5579	8.351978
353.7255	6.69327
353.8931	5.555502
354.0607	6.336545
354.2283	5.042353
354.3958	8.499318
354.5634	6.745215
354.731	10.90804
354.8986	6.48021
355.0661	5.990919
355.2337	4.827094
355.4012	7.308975
355.5688	6.645719
355.7363	8.144226
355.9039	4.194838
356.0714	6.712469
356.239	7.393764
356.4065	4.275215
356.574	4.487218
356.7415	6.39448
356.909	1.222887
357.0765	5.455773
357.244	4.225147
357.4115	7.032068
357.579	5.23409
357.7465	5.287816
357.914	5.272213
358.0815	4.744019
358.249	2.46469
358.4164	4.098416
358.5839	4.460342
358.7513	7.58957
358.9188	3.447296
359.0862	2.100133
359.2537	1.308696
359.4211	6.837126
359.5886	2.44731
359.756	-1.229264
359.9234	1.810828
360.0909	8.588228
360.2583	11.74917
360.4257	5.944358
360.5931	6.877388
360.7605	5.258237
360.9279	7.799991
361.0953	7.037282
361.2627	5.17698
361.4301	6.26688
361.5974	6.54334
361.7648	8.593828
361.9322	9.282507
362.0995	6.249815
362.2669	5.569767
362.4343	12.08323
362.6016	5.311358
362.769	2.282826
362.9363	9.748521
363.1036	9.338901
363.271	13.26296
363.4383	6.436314
363.6056	5.387631
363.7729	3.910445
363.9402	7.046363
364.1075	1.761199
364.2748	7.17031
364.4421	7.070541
364.6094	8.320417
364.7767	2.941706
364.944	4.376623
365.1113	10.03614
365.2786	10.38539
365.4458	5.743734
365.6131	5.6016
365.7803	4.710344
365.9476	6.576011
366.1148	6.944507
366.2821	7.612362
366.4493	7.219869
366.6166	8.127005
366.7838	8.289251
366.951	2.995975
367.1182	5.992089
367.2855	6.581625
367.4527	4.465057
367.6199	2.663551
367.7871	5.065403
367.9543	3.789316
368.1215	4.915248
368.2886	2.87715
368.4558	4.148513
368.623	6.846601
368.7902	9.620946
368.9573	2.482929
369.1245	0.3530797
369.2917	7.930824
369.4588	11.61519
369.6259	9.600611
369.7931	7.378383
369.9602	6.539307
370.1274	6.46838
370.2945	8.723125
370.4616	8.861865
370.6287	7.150662
370.7958	5.119955
370.963	6.282001
371.1301	6.76744
371.2971	6.921793
371.4643	2.018387
371.6313	7.608309
371.7984	5.612527
371.9655	4.633737
372.1326	8.026407
372.2997	4.369024
372.4667	5.720288
372.6338	4.860673
372.8008	9.804443
372.9679	11.31435
373.1349	8.609165
373.3019	11.52733
373.469	4.232827
373.636	7.992928
373.803	11.14411
373.9701	5.32876
374.1371	6.264529
374.3041	6.951064
374.4711	7.552232
374.6381	11.2399
374.8051	7.054832
374.9721	7.669168
375.1391	9.687026
375.3061	8.896468
375.473	8.56212
375.64	8.125278
375.8069	4.07445
375.9739	7.311182
376.1409	13.04273
376.3078	11.42677
376.4748	7.772882
376.6417	10.15797
376.8087	8.184378
376.9756	8.373411
377.1425	3.516812
377.3094	4.351447
377.4763	8.247957
377.6432	10.17116
377.8102	11.00738
377.9771	8.130982
378.144	4.826531
378.3109	5.09097
378.4777	8.767122
378.6446	9.31771
378.8115	9.337561
378.9784	7.345718
379.1452	9.136025
379.3121	5.962348
379.4789	6.508013
379.6458	6.599293
379.8127	7.705522
379.9795	8.507544
380.1463	7.722683
380.3131	4.964304
380.48	9.96516
380.6468	10.50735
380.8136	6.989712
380.9804	8.713943
381.1472	11.25171
381.314	9.896435
381.4808	7.743455
381.6476	5.355538
381.8144	10.39912
381.9812	10.69743
382.148	10.2815
382.3147	10.44967
382.4815	9.119227
382.6483	6.775949
382.815	3.620805
382.9818	5.755676
383.1485	11.77081
383.3153	6.773671
383.482	9.254245
383.6487	7.733497
383.8155	6.66116
383.9822	7.173026
384.1489	5.142838
384.3156	4.797421
384.4823	9.513925
384.649	9.332874
384.8157	5.265801
384.9824	6.777803
385.1491	6.896035
385.3158	12.35034
385.4825	9.286784
385.6491	5.588197
385.8158	6.761454
385.9825	6.313106
386.1491	7.927866
386.3157	8.773536
386.4824	10.65821
386.649	8.066746
386.8157	9.423478
386.9823	8.799429
387.1489	6.036887
387.3156	6.565591
387.4821	7.716258
387.6488	8.052258
387.8154	10.00989
387.982	10.17341
388.1486	7.675997
388.3152	8.093886
388.4818	9.368452
388.6483	12.43588
388.8149	11.5984
388.9815	12.89445
389.148	4.948398
389.3146	7.227529
389.4811	6.089258
389.6477	5.022855
389.8142	9.935759
389.9808	9.521263
390.1473	12.70781
390.3138	11.08241
390.4804	12.07262
390.6469	10.01401
390.8134	11.01085
390.9799	8.373513
391.1464	6.721418
391.3129	10.4209
391.4794	5.339561
391.6459	9.631082
391.8124	11.65003
391.9789	13.5209
392.1453	9.279379
392.3118	9.220828
392.4782	13.42955
392.6447	11.99293
392.8112	12.12083
392.9776	7.331708
393.144	2.104392
393.3105	9.938714
393.4769	8.290259
393.6433	7.284524
393.8098	4.645955
393.9762	10.01762
394.1426	6.545515
394.309	6.825952
394.4754	9.398487
394.6418	10.93649
394.8082	5.269411
394.9746	9.658073
395.141	2.534187
395.3073	10.18275
395.4737	11.87109
395.64	3.248972
395.8064	11.11475
395.9728	10.42747
396.1391	9.654284
396.3055	7.597299
396.4718	12.90406
396.6381	8.20823
396.8045	7.184999
396.9708	6.082314
397.1371	8.195285
397.3034	8.958191
397.4697	4.615838
397.636	11.08168
397.8023	10.2361
397.9686	11.1713
398.1349	15.13629
398.3012	11.42241
398.4675	11.94039
398.6337	8.715005
398.8	11.20445
398.9662	10.79924
399.1325	10.33578
399.2988	8.531569
399.465	13.83053
399.6313	15.90555
399.7975	9.242707
399.9637	8.936511
400.1299	14.74562
400.2961	11.05414
400.4624	8.881673
400.6286	10.09346
400.7948	11.60469
400.961	14.67535
401.1272	17.60684
401.2934	12.86202
401.4595	9.384531
401.6257	7.300948
401.7919	10.59949
401.9581	11.0015
402.1242	13.50647
402.2904	12.92831
402.4565	17.31571
402.6227	8.69631
402.7888	11.44761
402.955	14.43709
403.1211	14.0972
403.2872	15.97847
403.4533	17.49912
403.6194	11.63115
403.7856	12.99623
403.9517	13.41679
404.1177	12.79952
404.2838	13.21292
404.4499	11.91278
404.616	12.68475
404.7821	16.46095
404.9482	17.53967
405.1142	13.20603
405.2803	13.17384
405.4464	11.49319
405.6124	12.63523
405.7784	9.212387
405.9445	14.0702
406.1105	16.95826
406.2766	12.32245
406.4426	10.46989
406.6086	11.43257
406.7746	12.34164
406.9406	13.63384
407.1066	13.57662
407.2726	14.89136
407.4386	15.79542
407.6046	10.21411
407.7706	15.30832
407.9366	11.38868
408.1025	13.90971
408.2685	14.93522
408.4344	10.94057
408.6004	17.86646
408.7664	16.39547
408.9323	20.89223
409.0983	18.34876
409.2642	17.49908
409.4301	12.53806
409.596	14.01692
409.762	20.56106
409.9279	17.41438
410.0938	12.61576
410.2597	10.06642
410.4256	14.66132
410.5915	13.96124
410.7574	15.79552
410.9232	19.06606
411.0891	17.93711
411.255	18.22829
411.4209	18.53226
411.5867	22.81099
411.7526	19.64939
411.9184	18.7825
412.0843	18.66458
412.2501	15.78999
412.4159	18.89861
412.5818	21.54827
412.7476	19.50529
412.9134	18.18215
413.0792	16.03805
413.245	14.52771
413.4108	17.0322
413.5766	15.35159
413.7424	18.86578
413.9082	22.13579
414.074	20.64787
414.2397	19.32593
414.4055	14.77045
414.5713	15.00546
414.737	16.84176
414.9028	19.45935
415.0685	14.50402
415.2343	18.41213
415.4	22.19897
415.5658	20.16844
415.7315	19.09735
415.8972	17.88129
416.0629	17.41982
416.2286	19.94088
416.3943	18.81448
416.56	20.11692
416.7257	22.76964
416.8914	20.24341
417.0571	17.17407
417.2228	23.2487
417.3884	14.92844
417.5541	14.86818
417.7198	17.5301
417.8854	20.70053
418.0511	16.97218
418.2167	22.40747
418.3824	17.64355
418.548	17.68326
418.7136	12.84447
418.8792	20.85866
419.0449	17.69304
419.2105	15.43158
419.3761	20.62959
419.5417	19.76077
419.7073	20.01139
419.8729	18.50155
420.0385	15.60612
420.204	18.01574
420.3696	21.10304
420.5352	16.42933
420.7007	18.94733
420.8663	26.25385
421.0319	21.97858
421.1974	18.26379
421.3629	20.60199
421.5285	20.99497
421.694	23.99051
421.8595	21.83417
422.0251	22.28383
422.1906	22.23415
422.3561	21.89402
422.5216	20.82613
422.6871	19.37202
422.8526	23.61614
423.0181	20.25693
423.1835	20.13061
423.349	19.80564
423.5145	18.51995
423.68	19.82808
423.8454	19.36436
424.0109	17.41574
424.1763	22.40951
424.3418	28.59689
424.5072	21.42945
424.6726	26.28892
424.838	28.2828
425.0035	21.28299
425.1689	19.18565
425.3343	25.71078
425.4997	22.32912
425.6651	23.4718
425.8305	21.22887
425.9959	21.25162
426.1613	19.66665
426.3267	22.16584
426.492	28.32018
426.6574	20.60467
426.8228	21.47533
426.9881	26.02272
427.1534	26.30726
427.3188	25.27763
427.4841	18.57039
427.6495	16.75121
427.8148	22.51172
427.9801	19.73864
428.1454	20.8861
428.3107	18.35557
428.476	20.20629
428.6414	23.22466
428.8066	24.26084
428.9719	22.41369
429.1372	21.95703
429.3025	20.48443
429.4678	18.97207
429.633	16.12952
429.7983	19.96786
429.9636	21.3858
430.1288	19.36205
430.294	18.16325
430.4593	21.4673
430.6245	20.93984
430.7897	17.62147
430.955	20.59498
431.1202	23.34435
431.2854	22.09155
431.4506	21.95214
431.6158	23.56464
431.781	28.8266
431.9462	26.47475
432.1114	21.86872
432.2766	27.90323
432.4417	22.48218
432.6069	20.36321
432.772	19.44253
432.9372	29.49622
433.1024	25.10132
433.2675	24.55272
433.4326	26.08927
433.5977	30.19796
433.7629	26.86409
433.928	22.398
434.0931	20.78842
434.2582	23.7293
434.4233	21.9481
434.5884	24.22738
434.7535	24.68434
434.9186	24.12772
435.0837	25.98748
435.2488	24.02705
435.4138	23.68134
435.5789	23.25507
435.744	26.40812
435.909	27.30265
436.0741	30.75293
436.2391	29.29457
436.4042	30.2424
436.5692	32.01789
436.7342	36.08292
436.8992	30.28044
437.0643	33.71957
437.2293	28.59433
437.3943	26.6586
437.5593	31.06922
437.7243	32.48147
437.8893	27.3508
438.0542	30.01035
438.2192	32.9333
438.3842	30.0246
438.5491	28.13649
438.7141	26.5314
438.8791	29.16791
439.044	28.79969
439.209	28.77757
439.3739	34.44818
439.5388	34.17158
439.7037	31.48439
439.8687	23.16655
440.0336	28.03109
440.1985	30.01851
440.3634	30.03923
440.5283	28.42127
440.6932	25.78016
440.8581	32.60087
441.0229	30.41605
441.1878	30.81211
441.3527	32.5797
441.5175	32.27419
441.6824	33.69522
441.8472	34.55301
442.0121	34.6921
442.1769	37.02779
442.3418	34.37609
442.5066	30.80429
442.6714	29.38816
442.8362	34.25156
443.001	29.75666
443.1659	34.94621
443.3307	35.82045
443.4955	37.51157
443.6602	29.51686
443.825	27.74539
443.9898	33.62415
444.1546	35.51534
444.3193	33.97667
444.4841	36.23725
444.6488	39.68111
444.8136	33.16856
444.9783	33.7436
445.1431	33.25267
445.3078	35.67228
445.4725	33.67893
445.6372	29.65588
445.802	29.15312
445.9667	32.49663
446.1314	37.91352
446.2961	29.77311
446.4608	30.16998
446.6255	30.78392
446.7901	32.61789
446.9548	34.14471
447.1195	30.02735
447.2841	33.50261
447.4488	35.98358
447.6134	36.43578
447.7781	36.46402
447.9427	35.23188
448.1074	34.86083
448.272	33.09374
448.4366	36.80087
448.6012	34.59803
448.7658	33.73048
448.9305	33.40045
449.095	35.37185
449.2596	33.85511
449.4242	36.90833
449.5888	34.63684
449.7534	34.64216
449.9179	33.93185
450.0825	32.65627
450.2471	36.961
450.4116	39.33706
450.5762	41.20424
450.7407	37.4784
450.9052	39.43913
451.0698	37.4636
451.2343	38.78848
451.3988	35.44384
451.5633	39.12275
451.7278	36.97865
451.8923	39.57331
452.0568	37.21203
452.2213	41.51994
452.3858	41.4411
452.5503	35.39066
452.7148	35.88939
452.8792	36.27597
453.0437	36.3955
453.2081	34.69227
453.3726	33.53558
453.537	32.19083
453.7015	35.54244
453.8659	40.68966
454.0303	40.96546
454.1947	38.29195
454.3592	37.89263
454.5236	40.7324
454.688	38.60117
454.8524	36.3933
455.0168	32.79547
455.1811	37.06506
455.3455	36.62986
455.5099	41.98466
455.6743	41.06514
455.8386	42.60093
456.003	42.1306
456.1673	39.76859
456.3317	39.12296
456.496	39.96928
456.6603	37.72428
456.8246	41.43803
456.989	39.44486
457.1533	43.00912
457.3176	40.81294
457.4819	36.02023
457.6462	31.69589
457.8105	38.93255
457.9748	43.68006
458.1391	40.93189
458.3033	41.88758
458.4676	41.5805
458.6319	42.67717
458.7961	47.78786
458.9604	41.74866
459.1246	39.49896
459.2888	35.61329
459.4531	44.38585
459.6173	39.10368
459.7815	41.75497
459.9457	38.25115
460.11	36.87754
460.2741	40.94057
460.4384	42.3092
460.6025	39.28404
460.7667	42.04986
460.9309	43.5526
461.0951	44.4444
461.2592	41.04587
461.4234	40.71172
461.5876	37.70622
461.7517	38.46668
461.9159	42.82576
462.08	41.4173
462.2441	41.58637
462.4082	40.16249
462.5724	40.44347
462.7365	39.90353
462.9006	40.62503
463.0647	43.80976
463.2288	49.80138
463.3929	47.8088
463.557	42.49252
463.721	37.84114
463.8851	41.06309
464.0492	38.92606
464.2132	39.44007
464.3773	38.92316
464.5414	34.52934
464.7054	33.71453
464.8694	38.73253
465.0334	41.01196
465.1975	41.18003
465.3615	40.49501
465.5255	38.85336
465.6895	37.94624
465.8535	38.05494
466.0175	41.27522
466.1815	42.086
466.3455	41.77641
466.5095	39.0437
466.6734	36.87772
466.8374	38.19273
467.0014	35.6102
467.1653	39.36938
467.3293	40.53001
467.4932	38.86003
467.6571	43.05896
467.8211	44.0452
467.985	37.79992
468.1489	39.71668
468.3128	40.97447
468.4767	45.75425
468.6406	44.2239
468.8045	40.88132
468.9684	44.64385
469.1323	39.75576
469.2962	39.27705
469.46	42.33096
469.6239	48.63441
469.7878	43.68714
469.9516	47.27711
470.1154	40.80809
470.2793	41.87112
470.4431	40.10077
470.607	39.95137
470.7708	42.52363
470.9346	42.80831
471.0984	41.02282
471.2622	44.30762
471.426	43.43315
471.5898	42.51965
471.7536	42.53822
471.9174	47.11746
472.0811	44.95619
472.2449	47.55483
472.4087	47.626
472.5724	44.66077
472.7362	42.4367
472.8999	39.82714
473.0637	38.00188
473.2274	42.4485
473.3911	45.61161
473.5548	42.31292
473.7185	41.55838
473.8822	46.39863
474.0459	44.63565
474.2096	38.68888
474.3733	43.01514
474.537	46.19558
474.7007	46.72414
474.8643	44.0472
475.028	47.15873
475.1917	43.76207
475.3553	45.33141
475.519	42.43385
475.6826	38.33623
475.8463	44.53638
476.0099	41.82708
476.1735	42.00275
476.3371	43.47044
476.5007	42.67541
476.6643	43.6389
476.8279	40.37623
476.9915	39.3439
477.1551	45.89668
477.3187	48.2935
477.4823	46.5616
477.6458	41.67545
477.8094	43.74221
477.9729	48.73964
478.1365	40.73516
478.3	41.3744
478.4636	45.08522
478.6271	45.16194
478.7906	42.84039
478.9541	45.26809
479.1176	44.8476
479.2812	45.19712
479.4447	50.47118
479.6082	49.92071
479.7716	46.12642
479.9351	42.77376
480.0986	43.18671
480.2621	49.27228
480.4255	45.20655
480.589	48.71078
480.7524	44.58937
480.9159	44.80392
481.0793	46.25776
481.2428	48.86866
481.4062	44.8779
481.5696	45.51577
481.733	47.40228
481.8964	45.80695
482.0598	46.14934
482.2232	43.46179
482.3866	46.37391
482.55	44.16186
482.7134	47.14541
482.8768	45.32812
483.0401	43.58569
483.2035	44.23898
483.3668	46.52143
483.5302	41.36221
483.6935	42.8601
483.8568	43.9234
484.0202	41.00599
484.1835	43.26826
484.3468	46.48055
484.5101	47.71341
484.6734	43.6746
484.8367	42.63773
485	43.43743
485.1633	42.03986
485.3266	45.85682
485.4899	40.57062
485.6531	41.95159
485.8164	41.43481
485.9796	36.12331
486.1429	34.56401
486.3061	34.44019
486.4694	34.23465
486.6326	38.23959
486.7958	39.29433
486.959	42.39784
487.1223	39.53899
487.2855	45.2865
487.4486	44.58638
487.6118	46.6586
487.775	44.3062
487.9382	44.10102
488.1014	42.49136
488.2646	43.73084
488.4277	42.15897
488.5909	43.36065
488.754	46.45574
488.9171	46.41791
489.0803	40.83979
489.2434	41.78209
489.4066	48.82411
489.5697	47.234
489.7328	43.89069
489.8959	46.97981
490.059	48.29007
490.2221	50.1896
490.3852	48.77749
490.5482	47.05758
490.7113	48.74163
490.8744	48.4305
491.0374	46.7994
491.2005	44.30592
491.3636	41.8053
491.5266	44.8315
491.6896	48.36789
491.8527	47.32506
492.0157	41.75574
492.1787	42.23356
492.3417	43.13797
492.5047	45.24022
492.6677	46.65776
492.8307	48.25081
492.9937	43.63947
493.1567	46.9573
493.3196	51.28325
493.4826	44.06573
493.6456	42.57905
493.8085	38.46696
493.9715	39.99466
494.1344	43.63972
494.2974	43.21135
494.4603	47.76394
494.6232	51.31783
494.7861	48.91065
494.949	46.06506
495.1119	52.5387
495.2748	49.29734
495.4377	46.2203
495.6006	49.86496
495.7635	43.621
495.9264	47.0916
496.0892	46.60435
496.2521	46.83551
496.4149	51.50632
496.5778	46.46012
496.7407	46.71148
496.9035	46.72699
497.0663	48.02636
497.2291	44.52053
497.3919	49.45737
497.5547	51.66394
497.7176	49.64137
497.8804	51.58023
498.0432	45.20107
498.2059	41.1121
498.3687	46.70003
498.5315	47.66579
498.6942	48.05085
498.857	44.20483
499.0198	46.46498
499.1825	48.48749
499.3452	47.69631
499.508	48.65619
499.6707	50.02252
499.8334	49.85454
499.9962	48.9287
500.1589	43.34241
500.3216	46.59808
500.4843	48.37985
500.6469	43.05118
500.8096	43.8204
500.9723	44.61595
501.135	45.70893
501.2976	47.72864
501.4603	47.23364
501.623	47.97078
501.7856	48.27267
501.9482	50.04422
502.1109	45.69065
502.2735	46.50328
502.4361	45.02471
502.5987	46.25776
502.7614	48.73912
502.924	46.5693
503.0865	47.61865
503.2491	48.44977
503.4117	52.19662
503.5743	47.0035
503.7368	46.14746
503.8994	47.57098
504.062	45.97654
504.2245	49.42353
504.3871	45.09817
504.5496	51.36715
504.7121	52.96968
504.8746	51.36966
505.0372	48.22908
505.1997	51.90425
505.3622	52.80294
505.5247	51.14256
505.6872	50.80431
505.8497	52.44268
506.0121	51.99058
506.1746	44.50633
506.3371	54.29313
506.4995	54.86404
506.662	48.77969
506.8244	48.58192
506.9869	55.36427
507.1493	55.11652
507.3117	53.75586
507.4742	53.33681
507.6366	46.09896
507.799	50.94057
507.9614	51.26422
508.1238	49.2204
508.2862	46.25841
508.4485	50.85304
508.6109	51.44658
508.7733	55.68515
508.9357	51.54929
509.098	51.87443
509.2604	56.56265
509.4227	58.61689
509.5851	58.72443
509.7474	56.79585
509.9097	54.26027
510.072	48.81318
510.2343	49.5317
510.3966	54.1445
510.5589	56.506
510.7212	58.29089
510.8835	55.6242
511.0458	56.24301
511.2081	55.38469
511.3703	53.55486
511.5326	53.73498
511.6949	56.05246
511.8571	55.73997
512.0193	59.44506
512.1816	57.3019
512.3438	57.07613
512.506	54.01536
512.6682	60.91825
512.8304	60.40844
512.9926	55.45983
513.1548	57.71552
513.317	57.61596
513.4792	59.20068
513.6414	54.64509
513.8035	54.99873
513.9657	52.81113
514.1279	55.37745
514.29	56.57412
514.4521	55.85593
514.6143	57.55894
514.7764	57.56189
514.9385	57.7147
515.1006	56.61476
515.2628	55.73113
515.4249	51.68394
515.587	57.89071
515.7491	54.08944
515.9111	60.01914
516.0732	60.26926
516.2353	61.75319
