SPECTRUM DATA FILE
SpectrumCount:	1
PixelCount:	3648
UserName:	ToughBook User
SampleName:	
LightSource:	
Comments:	
DeviceName:	Qwave
DeviceManufacturer:	Broadcom
DeviceSerialNo:	11311

Name:	last spectrum
Date:	2024-05-02T15:07:21.0086800+02:00
ExposureTime:	0.02
TemporalAvg:	1
IntensityUnit:	normalizedCounts
CCDLoadLevel:	0.02462788
Temperature:	28.06824
DiagramColor:	200
ProcessingSteps:	335

Wavelength [nm]	Intensity1
334.421	6.502795
334.5891	5.282585
334.7573	6.030591
334.9254	4.306804
335.0935	0.8873048
335.2616	4.449323
335.4297	3.598801
335.5978	4.577412
335.7659	1.863849
335.934	2.562389
336.1021	4.004665
336.2701	4.883433
336.4382	8.585905
336.6063	4.004954
336.7744	3.882998
336.9424	5.229613
337.1105	4.337655
337.2785	5.450495
337.4466	1.857353
337.6146	3.085765
337.7827	2.197888
337.9507	3.52947
338.1187	4.154161
338.2867	-0.3825481
338.4548	1.131261
338.6228	5.969202
338.7908	1.818613
338.9588	5.595888
339.1268	2.235484
339.2948	-0.1352067
339.4628	5.833562
339.6308	4.378109
339.7988	6.649899
339.9667	4.467987
340.1347	7.435187
340.3027	5.309853
340.4707	5.618521
340.6386	4.485703
340.8066	1.151475
340.9745	4.612794
341.1425	5.671515
341.3104	5.113725
341.4784	3.52857
341.6463	5.222895
341.8142	4.307838
341.9821	1.869871
342.1501	4.573939
342.318	2.234437
342.4859	3.740576
342.6538	7.290756
342.8217	4.366699
342.9896	10.62494
343.1575	2.52106
343.3254	8.116858
343.4933	2.701132
343.6612	4.856087
343.829	1.780054
343.9969	4.762938
344.1648	7.334591
344.3326	3.971242
344.5005	5.292989
344.6683	4.578989
344.8362	4.782267
345.004	8.337513
345.1719	7.16811
345.3397	9.961601
345.5075	2.220829
345.6754	0.864286
345.8432	1.553082
346.011	1.253671
346.1788	5.507695
346.3466	5.090386
346.5144	3.852499
346.6822	4.790565
346.85	7.554476
347.0178	4.709646
347.1856	4.586036
347.3534	3.934556
347.5211	1.173457
347.6889	0.5123465
347.8567	4.503296
348.0244	8.20882
348.1922	8.85886
348.3599	6.375936
348.5277	4.158326
348.6954	7.26468
348.8632	12.31713
349.0309	8.213358
349.1986	3.461854
349.3663	5.871357
349.5341	6.430609
349.7018	4.248596
349.8695	6.318329
350.0372	8.779699
350.2049	6.867371
350.3726	8.670732
350.5403	5.573046
350.7079	4.146759
350.8756	7.171566
351.0433	6.722534
351.211	3.918989
351.3786	5.798938
351.5463	5.117045
351.714	4.802669
351.8816	2.627076
352.0493	3.370892
352.2169	6.626126
352.3846	5.806347
352.5522	6.668085
352.7198	5.426488
352.8875	6.412852
353.0551	4.06798
353.2227	6.510626
353.3903	5.671479
353.5579	4.369529
353.7255	5.437431
353.8931	9.20849
354.0607	5.881023
354.2283	3.576669
354.3958	6.924283
354.5634	1.669792
354.731	5.817252
354.8986	5.919627
355.0661	3.160914
355.2337	5.795501
355.4012	3.758045
355.5688	5.271441
355.7363	3.921191
355.9039	4.473488
356.0714	7.289415
356.239	4.647634
356.4065	5.744321
356.574	6.361346
356.7415	5.946633
356.909	3.76766
357.0765	5.994041
357.244	8.211903
357.4115	8.771741
357.579	8.577937
357.7465	8.243563
357.914	3.341962
358.0815	8.820827
358.249	4.731915
358.4164	3.292334
358.5839	5.342104
358.7513	2.565784
358.9188	5.370457
359.0862	6.291497
359.2537	7.976075
359.4211	7.298762
359.5886	0.4896986
359.756	6.19199
359.9234	7.597437
360.0909	7.042558
360.2583	8.67729
360.4257	8.094574
360.5931	3.900141
360.7605	4.389957
360.9279	10.01036
361.0953	7.893932
361.2627	8.488964
361.4301	6.030997
361.5974	10.5863
361.7648	11.02678
361.9322	7.143634
362.0995	6.534926
362.2669	2.44226
362.4343	5.393513
362.6016	10.25567
362.769	6.236665
362.9363	2.639081
363.1036	3.534702
363.271	1.419937
363.4383	5.273674
363.6056	10.71159
363.7729	8.712815
363.9402	7.398317
364.1075	10.27539
364.2748	11.86172
364.4421	11.98027
364.6094	6.836895
364.7767	8.630652
364.944	7.815765
365.1113	6.193046
365.2786	7.592401
365.4458	6.31947
365.6131	5.671709
365.7803	7.708986
365.9476	8.864725
366.1148	5.390548
366.2821	7.695764
366.4493	8.891084
366.6166	3.25494
366.7838	7.065285
366.951	2.859148
367.1182	4.503633
367.2855	6.452037
367.4527	8.869278
367.6199	9.773293
367.7871	8.702275
367.9543	7.943719
368.1215	9.24548
368.2886	5.84144
368.4558	5.131537
368.623	8.209483
368.7902	9.947144
368.9573	6.92348
369.1245	7.483442
369.2917	4.621078
369.4588	6.835234
369.6259	10.13503
369.7931	8.104133
369.9602	5.515265
370.1274	6.733626
370.2945	6.646714
370.4616	6.653546
370.6287	0.8650362
370.7958	8.345305
370.963	7.79566
371.1301	6.537332
371.2971	5.417557
371.4643	6.515861
371.6313	9.743268
371.7984	5.662674
371.9655	9.386865
372.1326	8.098118
372.2997	7.19098
372.4667	6.554499
372.6338	8.221136
372.8008	11.00133
372.9679	14.71165
373.1349	9.199746
373.3019	7.637035
373.469	5.214688
373.636	-0.9862679
373.803	5.096679
373.9701	9.729002
374.1371	8.040526
374.3041	7.862544
374.4711	5.832683
374.6381	8.45586
374.8051	4.690927
374.9721	7.634173
375.1391	7.220468
375.3061	8.645018
375.473	13.7871
375.64	10.39084
375.8069	13.89463
375.9739	10.10048
376.1409	12.07454
376.3078	10.36014
376.4748	6.537662
376.6417	6.043542
376.8087	8.352652
376.9756	4.290033
377.1425	7.300529
377.3094	6.322381
377.4763	5.312663
377.6432	7.363547
377.8102	7.791096
377.9771	8.273755
378.144	11.86672
378.3109	4.50181
378.4777	5.311762
378.6446	10.98375
378.8115	5.339719
378.9784	6.835592
379.1452	3.26623
379.3121	5.747252
379.4789	10.50725
379.6458	7.30612
379.8127	7.038218
379.9795	9.108903
380.1463	7.88518
380.3131	11.16269
380.48	9.01385
380.6468	8.217826
380.8136	9.406604
380.9804	5.436226
381.1472	1.352831
381.314	6.224899
381.4808	10.93175
381.6476	5.668683
381.8144	6.309412
381.9812	7.892008
382.148	6.345851
382.3147	4.737308
382.4815	6.002728
382.6483	4.947689
382.815	8.617783
382.9818	8.480333
383.1485	6.446898
383.3153	9.3943
383.482	11.66386
383.6487	10.44647
383.8155	6.319947
383.9822	7.535248
384.1489	10.96451
384.3156	8.07279
384.4823	9.171974
384.649	10.5026
384.8157	6.866292
384.9824	6.350016
385.1491	10.70163
385.3158	8.458375
385.4825	4.84273
385.6491	6.741925
385.8158	12.24687
385.9825	12.95478
386.1491	6.573763
386.3157	9.335189
386.4824	9.894358
386.649	8.756246
386.8157	9.286746
386.9823	12.36148
387.1489	5.382361
387.3156	5.146592
387.4821	8.890126
387.6488	10.48591
387.8154	8.696045
387.982	15.94072
388.1486	12.94702
388.3152	8.279242
388.4818	11.04079
388.6483	10.58849
388.8149	8.545898
388.9815	12.06282
389.148	7.693958
389.3146	5.698803
389.4811	8.703503
389.6477	11.14341
389.8142	12.44513
389.9808	12.87464
390.1473	7.333191
390.3138	10.46428
390.4804	8.572589
390.6469	10.95748
390.8134	8.687264
390.9799	11.2097
391.1464	13.78949
391.3129	10.18159
391.4794	12.47178
391.6459	8.261328
391.8124	9.720344
391.9789	9.433841
392.1453	12.14865
392.3118	7.389252
392.4782	6.347011
392.6447	6.606672
392.8112	8.509717
392.9776	9.360852
393.144	6.628075
393.3105	10.56759
393.4769	11.38922
393.6433	10.69484
393.8098	8.918329
393.9762	12.59309
394.1426	9.751062
394.309	10.33212
394.4754	7.22072
394.6418	9.34311
394.8082	13.56451
394.9746	8.248951
395.141	12.59745
395.3073	13.76539
395.4737	14.24984
395.64	10.62288
395.8064	11.26376
395.9728	15.60892
396.1391	15.26859
396.3055	8.190675
396.4718	5.329719
396.6381	10.02641
396.8045	8.402131
396.9708	8.225674
397.1371	6.698706
397.3034	11.43018
397.4697	18.01003
397.636	11.01145
397.8023	9.455004
397.9686	9.035826
398.1349	13.10463
398.3012	11.48803
398.4675	9.717486
398.6337	15.73331
398.8	13.74967
398.9662	12.80684
399.1325	10.49114
399.2988	12.82867
399.465	12.14085
399.6313	14.21036
399.7975	12.75878
399.9637	11.63718
400.1299	15.94367
400.2961	16.83061
400.4624	13.07169
400.6286	13.97173
400.7948	12.38313
400.961	15.03082
401.1272	14.00548
401.2934	15.97804
401.4595	16.80926
401.6257	11.58719
401.7919	13.47115
401.9581	14.73668
402.1242	16.46617
402.2904	13.26818
402.4565	10.32436
402.6227	13.0206
402.7888	12.64142
402.955	12.3374
403.1211	9.10778
403.2872	11.37759
403.4533	14.75212
403.6194	14.62241
403.7856	15.63313
403.9517	11.72433
404.1177	13.78273
404.2838	12.73639
404.4499	14.23762
404.616	13.37799
404.7821	12.76167
404.9482	11.28073
405.1142	16.47021
405.2803	13.13656
405.4464	11.65416
405.6124	14.35148
405.7784	14.98081
405.9445	14.32492
406.1105	13.04489
406.2766	17.78294
406.4426	13.72413
406.6086	11.79121
406.7746	15.07735
406.9406	13.50808
407.1066	18.01715
407.2726	20.03435
407.4386	14.48426
407.6046	18.22688
407.7706	11.78521
407.9366	12.42378
408.1025	21.06522
408.2685	19.57133
408.4344	16.79506
408.6004	17.14482
408.7664	19.28637
408.9323	18.44086
409.0983	16.39409
409.2642	14.10457
409.4301	19.49304
409.596	18.93533
409.762	19.50869
409.9279	11.90701
410.0938	14.75625
410.2597	13.77218
410.4256	11.60425
410.5915	9.748471
410.7574	16.4752
410.9232	16.08915
411.0891	17.8842
411.255	16.40981
411.4209	17.5274
411.5867	20.54429
411.7526	16.75605
411.9184	15.47359
412.0843	15.08447
412.2501	17.84616
412.4159	24.78847
412.5818	24.31313
412.7476	17.99909
412.9134	13.35896
413.0792	19.22673
413.245	20.4664
413.4108	12.96256
413.5766	15.95301
413.7424	20.40328
413.9082	22.7984
414.074	20.06627
414.2397	22.85516
414.4055	19.10217
414.5713	24.52686
414.737	23.5308
414.9028	18.15336
415.0685	12.46575
415.2343	20.63845
415.4	17.23771
415.5658	16.48929
415.7315	23.59614
415.8972	21.23474
416.0629	20.17632
416.2286	17.12912
416.3943	17.73684
416.56	14.31577
416.7257	18.50496
416.8914	19.35461
417.0571	19.5659
417.2228	17.79347
417.3884	16.29739
417.5541	21.68808
417.7198	22.39244
417.8854	17.63021
418.0511	18.51029
418.2167	17.88589
418.3824	18.3464
418.548	18.10465
418.7136	22.14424
418.8792	18.26385
419.0449	21.87494
419.2105	20.82579
419.3761	22.16166
419.5417	23.55951
419.7073	19.87476
419.8729	26.45665
420.0385	19.68884
420.204	20.21346
420.3696	21.32869
420.5352	18.55622
420.7007	20.60874
420.8663	20.47757
421.0319	23.30318
421.1974	20.24363
421.3629	26.09051
421.5285	22.80118
421.694	24.47157
421.8595	20.47668
422.0251	26.14747
422.1906	24.07672
422.3561	26.89097
422.5216	23.15653
422.6871	17.84605
422.8526	19.90188
423.0181	21.93203
423.1835	25.31343
423.349	21.60703
423.5145	19.00727
423.68	22.01994
423.8454	26.00016
424.0109	28.57278
424.1763	20.52849
424.3418	21.22898
424.5072	21.90797
424.6726	25.23229
424.838	18.12224
425.0035	20.24284
425.1689	28.19205
425.3343	26.82587
425.4997	23.57293
425.6651	25.99318
425.8305	23.53495
425.9959	30.59134
426.1613	28.90731
426.3267	23.04793
426.492	24.9829
426.6574	27.27391
426.8228	26.15245
426.9881	22.60688
427.1534	21.7842
427.3188	30.04858
427.4841	25.17297
427.6495	24.49424
427.8148	24.42081
427.9801	21.94881
428.1454	20.63449
428.3107	25.6718
428.476	22.15497
428.6414	26.79901
428.8066	26.51122
428.9719	26.44453
429.1372	23.39827
429.3025	20.97259
429.4678	26.23753
429.633	27.19529
429.7983	29.63456
429.9636	24.17002
430.1288	21.26431
430.294	22.08038
430.4593	22.84578
430.6245	20.61683
430.7897	18.25792
430.955	19.10724
431.1202	23.10252
431.2854	21.86776
431.4506	24.58637
431.6158	29.4001
431.781	27.75993
431.9462	28.0203
432.1114	28.56282
432.2766	28.71585
432.4417	22.1773
432.6069	22.11508
432.772	22.40973
432.9372	28.02903
433.1024	27.32493
433.2675	26.55992
433.4326	25.23337
433.5977	27.94362
433.7629	23.68152
433.928	27.36131
434.0931	21.9628
434.2582	24.52586
434.4233	27.69899
434.5884	33.48059
434.7535	33.87482
434.9186	31.33438
435.0837	25.28839
435.2488	27.03042
435.4138	30.2352
435.5789	30.70549
435.744	34.75729
435.909	33.52347
436.0741	30.2147
436.2391	27.79268
436.4042	32.46371
436.5692	30.91294
436.7342	28.57411
436.8992	31.51913
437.0643	33.06471
437.2293	23.19378
437.3943	31.63997
437.5593	29.94521
437.7243	30.30659
437.8893	29.24451
438.0542	35.85277
438.2192	32.26584
438.3842	25.48539
438.5491	29.82581
438.7141	29.5591
438.8791	25.23843
439.044	27.74227
439.209	34.61569
439.3739	33.89392
439.5388	32.79322
439.7037	34.05798
439.8687	35.7617
440.0336	30.48533
440.1985	27.61166
440.3634	29.28871
440.5283	31.39516
440.6932	29.94453
440.8581	34.42961
441.0229	28.50265
441.1878	35.9602
441.3527	32.32314
441.5175	31.06639
441.6824	34.49577
441.8472	29.77577
442.0121	32.91191
442.1769	36.15464
442.3418	34.74667
442.5066	36.70168
442.6714	35.99772
442.8362	32.78426
443.001	36.33941
443.1659	36.64357
443.3307	33.38448
443.4955	38.79777
443.6602	33.8206
443.825	38.44608
443.9898	34.91061
444.1546	33.38103
444.3193	33.64778
444.4841	34.11912
444.6488	32.83384
444.8136	33.54396
444.9783	34.52075
445.1431	38.4124
445.3078	37.41738
445.4725	30.6486
445.6372	28.16193
445.802	28.62294
445.9667	36.29468
446.1314	34.05862
446.2961	34.31825
446.4608	30.25485
446.6255	31.22613
446.7901	33.62986
446.9548	39.58034
447.1195	36.38703
447.2841	36.26963
447.4488	35.57207
447.6134	38.52851
447.7781	37.24422
447.9427	39.81457
448.1074	39.04197
448.272	37.54917
448.4366	36.48658
448.6012	41.07543
448.7658	40.35648
448.9305	41.12519
449.095	37.90903
449.2596	39.97374
449.4242	40.18017
449.5888	38.35081
449.7534	34.9618
449.9179	35.45586
450.0825	34.72311
450.2471	37.81795
450.4116	38.64455
450.5762	40.87091
450.7407	39.31615
450.9052	41.47276
451.0698	42.44119
451.2343	36.71668
451.3988	36.92601
451.5633	35.35128
451.7278	44.39672
451.8923	39.74046
452.0568	38.41426
452.2213	40.91963
452.3858	42.1705
452.5503	41.11914
452.7148	32.57915
452.8792	38.5027
453.0437	38.15205
453.2081	35.53751
453.3726	38.30557
453.537	42.4981
453.7015	42.03036
453.8659	41.54276
454.0303	41.1229
454.1947	38.34362
454.3592	41.48967
454.5236	40.69363
454.688	42.29935
454.8524	42.37298
455.0168	39.92379
455.1811	41.73666
455.3455	44.92244
455.5099	45.45876
455.6743	42.9031
455.8386	44.10322
456.003	45.18692
456.1673	41.92434
456.3317	44.81126
456.496	41.93729
456.6603	41.22903
456.8246	40.46618
456.989	39.82507
457.1533	41.71349
457.3176	41.69163
457.4819	48.6153
457.6462	43.71794
457.8105	48.01413
457.9748	45.42192
458.1391	40.81314
458.3033	40.72865
458.4676	44.43825
458.6319	41.38789
458.7961	41.41692
458.9604	42.63342
459.1246	45.6941
459.2888	45.11658
459.4531	42.7978
459.6173	45.45287
459.7815	47.50127
459.9457	45.80846
460.11	39.61501
460.2741	45.00884
460.4384	41.27218
460.6025	42.09838
460.7667	42.51785
460.9309	42.089
461.0951	41.30399
461.2592	46.0395
461.4234	43.68869
461.5876	43.53853
461.7517	43.70988
461.9159	41.72216
462.08	45.72092
462.2441	47.93466
462.4082	45.22009
462.5724	42.05298
462.7365	44.24156
462.9006	43.11434
463.0647	45.79493
463.2288	47.5494
463.3929	49.20364
463.557	45.64266
463.721	42.96453
463.8851	44.3328
464.0492	38.79087
464.2132	42.21518
464.3773	45.11789
464.5414	41.07946
464.7054	44.48689
464.8694	41.81194
465.0334	39.31158
465.1975	45.57169
465.3615	41.20205
465.5255	40.32271
465.6895	40.8116
465.8535	41.8484
466.0175	45.09703
466.1815	43.92762
466.3455	46.6838
466.5095	45.881
466.6734	42.47498
466.8374	41.01773
467.0014	42.71058
467.1653	41.91579
467.3293	46.99448
467.4932	46.74224
467.6571	45.35389
467.8211	41.86783
467.985	42.23066
468.1489	45.37944
468.3128	44.8583
468.4767	41.29959
468.6406	44.27705
468.8045	47.56532
468.9684	46.49142
469.1323	46.05419
469.2962	46.74276
469.46	47.1474
469.6239	45.34322
469.7878	42.62079
469.9516	42.07134
470.1154	39.32729
470.2793	39.23508
470.4431	42.389
470.607	41.1045
470.7708	43.09155
470.9346	45.24324
471.0984	46.264
471.2622	48.40006
471.426	43.90267
471.5898	47.2469
471.7536	50.81242
471.9174	48.66756
472.0811	47.50021
472.2449	44.74413
472.4087	49.07279
472.5724	50.61908
472.7362	47.81736
472.8999	46.02615
473.0637	45.38401
473.2274	46.31865
473.3911	44.08818
473.5548	49.45795
473.7185	47.68068
473.8822	44.36031
474.0459	49.36744
474.2096	49.09727
474.3733	48.75922
474.537	45.35439
474.7007	39.26326
474.8643	45.03271
475.028	46.02372
475.1917	44.43872
475.3553	45.884
475.519	45.42253
475.6826	46.49975
475.8463	45.8098
476.0099	45.47109
476.1735	45.37391
476.3371	42.81604
476.5007	47.53253
476.6643	42.8857
476.8279	45.61999
476.9915	41.83551
477.1551	47.47042
477.3187	50.38192
477.4823	45.21005
477.6458	48.58836
477.8094	48.63226
477.9729	47.0909
478.1365	47.9292
478.3	49.15215
478.4636	48.68151
478.6271	48.34575
478.7906	43.38448
478.9541	46.80314
479.1176	46.69038
479.2812	45.85785
479.4447	48.54637
479.6082	47.4971
479.7716	44.20912
479.9351	42.81679
480.0986	45.79527
480.2621	48.08814
480.4255	47.94678
480.589	44.87014
480.7524	47.47742
480.9159	45.0699
481.0793	47.27434
481.2428	43.74572
481.4062	46.24701
481.5696	45.47014
481.733	42.2119
481.8964	41.86296
482.0598	40.57955
482.2232	41.59758
482.3866	46.31859
482.55	45.42854
482.7134	43.52603
482.8768	43.5955
483.0401	43.56548
483.2035	47.6893
483.3668	45.33805
483.5302	46.79922
483.6935	44.90179
483.8568	46.88562
484.0202	46.98371
484.1835	48.71345
484.3468	44.48873
484.5101	50.50293
484.6734	46.29484
484.8367	47.89192
485	47.36196
485.1633	48.62747
485.3266	49.23771
485.4899	48.30807
485.6531	38.75365
485.8164	38.32795
485.9796	39.53949
486.1429	40.5628
486.3061	38.21598
486.4694	35.45433
486.6326	41.03009
486.7958	45.4226
486.959	48.25223
487.1223	44.54832
487.2855	44.87438
487.4486	48.3462
487.6118	47.57056
487.775	48.44546
487.9382	52.07777
488.1014	51.07818
488.2646	46.73594
488.4277	45.58022
488.5909	49.15799
488.754	45.21217
488.9171	42.6194
489.0803	46.65574
489.2434	47.11439
489.4066	48.07038
489.5697	47.49288
489.7328	48.57549
489.8959	48.03307
490.059	42.67922
490.2221	49.55158
490.3852	48.24131
490.5482	45.09185
490.7113	47.07829
490.8744	48.30727
491.0374	48.90276
491.2005	50.18219
491.3636	47.47376
491.5266	53.39523
491.6896	45.06605
491.8527	46.39742
492.0157	46.33473
492.1787	43.94233
492.3417	45.88015
492.5047	45.44415
492.6677	53.58093
492.8307	49.75851
492.9937	48.3196
493.1567	49.99872
493.3196	48.57617
493.4826	47.99215
493.6456	43.76385
493.8085	47.75358
493.9715	46.60868
494.1344	46.68127
494.2974	45.73095
494.4603	47.62748
494.6232	44.33817
494.7861	47.63529
494.949	51.6166
495.1119	52.27043
495.2748	51.17599
495.4377	55.32054
495.6006	48.22678
495.7635	45.01498
495.9264	44.19999
496.0892	48.2815
496.2521	47.60341
496.4149	52.5667
496.5778	50.43699
496.7407	50.98494
496.9035	53.48861
497.0663	51.58411
497.2291	50.18977
497.3919	53.5371
497.5547	54.41382
497.7176	45.85781
497.8804	47.1216
498.0432	52.56055
498.2059	48.65633
498.3687	46.15183
498.5315	50.63092
498.6942	51.53594
498.857	53.25257
499.0198	51.58844
499.1825	50.86647
499.3452	50.94036
499.508	47.7361
499.6707	50.11061
499.8334	52.23915
499.9962	51.48787
500.1589	46.85719
500.3216	50.08345
500.4843	49.00817
500.6469	52.63039
500.8096	52.32848
500.9723	53.38803
501.135	50.41789
501.2976	47.74001
501.4603	48.99792
501.623	49.06157
501.7856	47.09519
501.9482	52.44656
502.1109	47.44297
502.2735	47.41643
502.4361	50.40366
502.5987	50.05504
502.7614	52.09322
502.924	50.74742
503.0865	52.63858
503.2491	52.89491
503.4117	52.72065
503.5743	52.07855
503.7368	53.17355
503.8994	51.07288
504.062	50.69528
504.2245	47.89594
504.3871	53.06602
504.5496	55.15573
504.7121	59.66222
504.8746	53.87082
505.0372	48.77008
505.1997	48.43573
505.3622	51.64113
505.5247	55.98475
505.6872	53.30555
505.8497	52.22337
506.0121	54.77762
506.1746	57.23034
506.3371	50.19888
506.4995	51.8091
506.662	50.1692
506.8244	53.13906
506.9869	53.51194
507.1493	56.12638
507.3117	54.77417
507.4742	49.25305
507.6366	53.58058
507.799	55.63527
507.9614	49.97903
508.1238	48.61678
508.2862	48.46212
508.4485	58.75247
508.6109	62.56268
508.7733	58.20786
508.9357	50.11671
509.098	54.88014
509.2604	55.65642
509.4227	56.31376
509.5851	52.63101
509.7474	54.17023
509.9097	58.61268
510.072	59.45177
510.2343	55.88101
510.3966	56.79064
510.5589	59.79079
510.7212	60.93972
510.8835	60.80006
511.0458	55.80576
511.2081	61.62632
511.3703	60.4379
511.5326	59.81678
511.6949	62.39051
511.8571	59.06266
512.0193	59.02646
512.1816	53.48796
512.3438	56.93681
512.506	60.72263
512.6682	61.98901
512.8304	52.80078
512.9926	55.62232
513.1548	59.93911
513.317	60.86879
513.4792	61.40666
513.6414	63.33319
513.8035	59.88338
513.9657	59.97586
514.1279	60.55489
514.29	60.43685
514.4521	60.32304
514.6143	60.4867
514.7764	63.66001
514.9385	64.23901
515.1006	61.5043
515.2628	58.89994
515.4249	60.47592
515.587	59.38197
515.7491	65.93383
515.9111	65.60738
516.0732	61.56459
516.2353	64.18597
