SPECTRUM DATA FILE
SpectrumCount:	1
PixelCount:	3648
UserName:	ToughBook User
SampleName:	
LightSource:	
Comments:	
DeviceName:	Qwave
DeviceManufacturer:	Broadcom
DeviceSerialNo:	11311

Name:	last spectrum
Date:	2024-05-02T15:06:36.3462253+02:00
ExposureTime:	0.02
TemporalAvg:	1
IntensityUnit:	normalizedCounts
CCDLoadLevel:	0.02606397
Temperature:	28.38461
DiagramColor:	200
ProcessingSteps:	335

Wavelength [nm]	Intensity1
334.421	1.588978
334.5891	4.141144
334.7573	5.22187
334.9254	4.854515
335.0935	6.482926
335.2616	5.313881
335.4297	3.932316
335.5978	4.704861
335.7659	3.696713
335.934	1.629412
336.1021	4.838354
336.2701	1.22822
336.4382	8.588585
336.6063	3.451482
336.7744	2.836661
336.9424	4.367061
337.1105	5.960531
337.2785	3.929188
337.4466	6.864329
337.6146	3.344237
337.7827	5.464096
337.9507	2.929601
338.1187	5.85355
338.2867	3.835486
338.4548	3.512164
338.6228	6.09122
338.7908	1.809913
338.9588	8.474675
339.1268	4.422215
339.2948	1.436051
339.4628	4.396479
339.6308	7.469198
339.7988	8.271477
339.9667	5.629743
340.1347	3.320641
340.3027	4.187176
340.4707	2.53775
340.6386	4.099466
340.8066	3.292575
340.9745	0.1818713
341.1425	2.144436
341.3104	5.334299
341.4784	3.027517
341.6463	1.887052
341.8142	5.703925
341.9821	4.269691
342.1501	4.778234
342.318	3.444988
342.4859	1.593877
342.6538	2.876862
342.8217	5.622968
342.9896	4.494845
343.1575	5.795304
343.3254	7.581424
343.4933	9.209717
343.6612	5.359911
343.829	7.291767
343.9969	3.897126
344.1648	7.295813
344.3326	2.923113
344.5005	5.658249
344.6683	3.880663
344.8362	4.316471
345.004	6.394116
345.1719	2.447502
345.3397	2.43551
345.5075	2.937849
345.6754	2.09199
345.8432	5.122917
346.011	5.66326
346.1788	7.677661
346.3466	3.65311
346.5144	3.477288
346.6822	4.843255
346.85	6.487623
347.0178	6.445916
347.1856	4.248196
347.3534	-0.1664782
347.5211	4.857618
347.6889	10.30753
347.8567	6.1389
348.0244	9.219233
348.1922	2.176167
348.3599	4.580862
348.5277	5.435673
348.6954	7.803585
348.8632	4.297768
349.0309	-0.7133089
349.1986	6.508867
349.3663	1.191621
349.5341	3.304367
349.7018	2.428221
349.8695	0.6495066
350.0372	-0.1715082
350.2049	3.422355
350.3726	5.637829
350.5403	5.519759
350.7079	3.898649
350.8756	4.2797
351.0433	8.082323
351.211	4.811078
351.3786	3.512223
351.5463	5.631603
351.714	4.862046
351.8816	-0.6603701
352.0493	3.974612
352.2169	8.131203
352.3846	5.650786
352.5522	3.528779
352.7198	8.231239
352.8875	6.495045
353.0551	6.57653
353.2227	5.414251
353.3903	5.60251
353.5579	2.085445
353.7255	5.000018
353.8931	2.527111
354.0607	4.227859
354.2283	4.029151
354.3958	2.156032
354.5634	4.729848
354.731	3.333716
354.8986	1.923957
355.0661	7.506461
355.2337	9.613141
355.4012	9.026175
355.5688	6.611595
355.7363	3.402162
355.9039	3.116273
356.0714	7.048511
356.239	6.020402
356.4065	3.915551
356.574	3.388006
356.7415	3.89662
356.909	6.102561
357.0765	4.270664
357.244	2.788799
357.4115	2.37372
357.579	1.038046
357.7465	9.49141
357.914	6.253683
358.0815	1.158697
358.249	3.052279
358.4164	6.633018
358.5839	3.591447
358.7513	5.839126
358.9188	6.778107
359.0862	1.852214
359.2537	6.254371
359.4211	4.783872
359.5886	2.244168
359.756	3.103211
359.9234	5.836943
360.0909	7.016413
360.2583	4.478923
360.4257	2.668435
360.5931	6.028658
360.7605	5.549356
360.9279	3.823441
361.0953	8.822344
361.2627	3.142123
361.4301	5.796275
361.5974	2.211195
361.7648	5.176902
361.9322	6.546486
362.0995	6.980273
362.2669	9.674302
362.4343	4.858544
362.6016	5.044456
362.769	4.258804
362.9363	8.806924
363.1036	10.42943
363.271	8.851606
363.4383	5.141796
363.6056	5.013993
363.7729	7.993705
363.9402	7.544707
364.1075	5.336313
364.2748	7.632826
364.4421	5.369806
364.6094	4.796269
364.7767	7.143269
364.944	6.37581
365.1113	12.45971
365.2786	8.002504
365.4458	5.659262
365.6131	5.511537
365.7803	7.265816
365.9476	8.525402
366.1148	6.20707
366.2821	6.037134
366.4493	5.461087
366.6166	5.964695
366.7838	6.958763
366.951	11.68034
367.1182	4.456529
367.2855	8.673003
367.4527	6.564742
367.6199	5.732215
367.7871	4.406714
367.9543	6.984161
368.1215	5.346666
368.2886	6.843626
368.4558	9.577314
368.623	9.627183
368.7902	8.463387
368.9573	4.577525
369.1245	2.915554
369.2917	5.782542
369.4588	7.116442
369.6259	7.313797
369.7931	4.892965
369.9602	4.360505
370.1274	10.89397
370.2945	7.709818
370.4616	2.015253
370.6287	8.040462
370.7958	7.362154
370.963	4.49149
371.1301	5.947872
371.2971	10.39762
371.4643	10.72083
371.6313	8.855844
371.7984	4.106573
371.9655	5.90935
372.1326	9.787026
372.2997	4.69853
372.4667	6.925073
372.6338	8.798576
372.8008	9.868147
372.9679	7.514663
373.1349	4.076371
373.3019	2.687619
373.469	1.796134
373.636	7.012288
373.803	4.022448
373.9701	7.906423
374.1371	6.720775
374.3041	10.17953
374.4711	6.639295
374.6381	6.418563
374.8051	13.2476
374.9721	9.516214
375.1391	8.795766
375.3061	6.099452
375.473	8.075641
375.64	10.77149
375.8069	6.291579
375.9739	8.593673
376.1409	7.800173
376.3078	5.900762
376.4748	5.407724
376.6417	10.70846
376.8087	10.97313
376.9756	12.07149
377.1425	15.96309
377.3094	7.995161
377.4763	2.538975
377.6432	5.685598
377.8102	6.484924
377.9771	9.183709
378.144	8.951586
378.3109	4.244005
378.4777	9.048698
378.6446	9.529917
378.8115	9.036145
378.9784	8.423103
379.1452	6.765057
379.3121	6.837787
379.4789	5.370845
379.6458	6.177454
379.8127	8.388072
379.9795	4.565911
380.1463	6.845387
380.3131	10.44266
380.48	10.59712
380.6468	10.63793
380.8136	3.860947
380.9804	6.396926
381.1472	5.834527
381.314	6.408711
381.4808	8.030663
381.6476	8.271467
381.8144	9.166895
381.9812	6.395595
382.148	6.497124
382.3147	3.531739
382.4815	2.066307
382.6483	5.687375
382.815	5.96637
382.9818	7.163407
383.1485	3.918531
383.3153	1.636626
383.482	9.771744
383.6487	7.764619
383.8155	6.125462
383.9822	7.221666
384.1489	9.368566
384.3156	9.711947
384.4823	10.57821
384.649	11.4011
384.8157	12.36954
384.9824	12.95492
385.1491	10.10558
385.3158	1.193525
385.4825	4.75256
385.6491	8.135428
385.8158	8.875379
385.9825	9.642481
386.1491	6.823006
386.3157	2.294744
386.4824	6.286997
386.649	4.000507
386.8157	7.109231
386.9823	7.411752
387.1489	7.428282
387.3156	6.470841
387.4821	11.40222
387.6488	8.250918
387.8154	5.708639
387.982	6.235299
388.1486	6.365319
388.3152	8.726748
388.4818	4.287825
388.6483	6.978134
388.8149	10.55995
388.9815	2.644694
389.148	9.078197
389.3146	9.767069
389.4811	9.297544
389.6477	6.663163
389.8142	8.615988
389.9808	9.192317
390.1473	9.408576
390.3138	12.5893
390.4804	6.342987
390.6469	7.706949
390.8134	8.260398
390.9799	8.873932
391.1464	11.61318
391.3129	11.06296
391.4794	10.94796
391.6459	9.899282
391.8124	9.366192
391.9789	8.714381
392.1453	11.58909
392.3118	8.826345
392.4782	8.236346
392.6447	9.879319
392.8112	9.161885
392.9776	9.721908
393.144	4.878709
393.3105	11.415
393.4769	5.211491
393.6433	7.702088
393.8098	8.231271
393.9762	3.319324
394.1426	5.333605
394.309	7.49718
394.4754	10.38336
394.6418	12.4441
394.8082	11.83548
394.9746	6.997888
395.141	10.86264
395.3073	9.324121
395.4737	11.41756
395.64	13.70476
395.8064	11.60245
395.9728	12.29725
396.1391	9.277493
396.3055	11.70802
396.4718	6.073857
396.6381	7.220626
396.8045	5.151718
396.9708	5.614297
397.1371	13.0362
397.3034	9.511125
397.4697	15.26775
397.636	12.31562
397.8023	8.331897
397.9686	13.43696
398.1349	10.00113
398.3012	12.41757
398.4675	12.20719
398.6337	19.99598
398.8	15.63052
398.9662	9.33686
399.1325	14.64154
399.2988	12.75013
399.465	13.88907
399.6313	12.311
399.7975	9.431677
399.9637	12.35321
400.1299	13.05349
400.2961	15.09442
400.4624	11.67316
400.6286	11.24715
400.7948	10.1396
400.961	13.81205
401.1272	12.51352
401.2934	14.08953
401.4595	14.24244
401.6257	11.02443
401.7919	9.013041
401.9581	8.154759
402.1242	14.31461
402.2904	10.21763
402.4565	8.199417
402.6227	10.26221
402.7888	13.54132
402.955	12.23755
403.1211	12.00014
403.2872	15.26374
403.4533	13.59602
403.6194	10.88907
403.7856	13.42341
403.9517	15.49821
404.1177	12.29061
404.2838	14.61854
404.4499	13.99424
404.616	11.82903
404.7821	11.14914
404.9482	12.86291
405.1142	15.71586
405.2803	11.03436
405.4464	13.72994
405.6124	11.65954
405.7784	12.25629
405.9445	12.53687
406.1105	12.13994
406.2766	12.73662
406.4426	11.42949
406.6086	10.67747
406.7746	15.27996
406.9406	15.9612
407.1066	12.97963
407.2726	11.88419
407.4386	12.40066
407.6046	11.97754
407.7706	10.64717
407.9366	10.76858
408.1025	12.58982
408.2685	15.67551
408.4344	17.77764
408.6004	8.977122
408.7664	11.5072
408.9323	13.32831
409.0983	15.73662
409.2642	12.63767
409.4301	16.26603
409.596	16.11
409.762	15.33288
409.9279	15.89705
410.0938	10.25307
410.2597	12.51724
410.4256	13.15082
410.5915	14.64164
410.7574	15.86189
410.9232	14.20656
411.0891	13.07079
411.255	10.19813
411.4209	19.25451
411.5867	18.58506
411.7526	16.15103
411.9184	15.7085
412.0843	15.54999
412.2501	15.22179
412.4159	16.48487
412.5818	14.23909
412.7476	13.00797
412.9134	12.93609
413.0792	15.5666
413.245	16.1643
413.4108	14.10247
413.5766	16.30762
413.7424	12.09643
413.9082	13.72618
414.074	17.38037
414.2397	16.9306
414.4055	12.77614
414.5713	11.945
414.737	11.37789
414.9028	13.08235
415.0685	13.17504
415.2343	14.03672
415.4	11.63647
415.5658	15.95615
415.7315	17.05863
415.8972	14.35069
416.0629	15.73671
416.2286	13.30004
416.3943	17.62723
416.56	15.60837
416.7257	17.60291
416.8914	13.07951
417.0571	17.24545
417.2228	16.5936
417.3884	16.36685
417.5541	18.89523
417.7198	19.61703
417.8854	15.77291
418.0511	15.17504
418.2167	16.08162
418.3824	12.61719
418.548	13.25011
418.7136	17.32968
418.8792	19.1668
419.0449	10.9641
419.2105	18.21607
419.3761	15.35143
419.5417	14.91031
419.7073	13.81591
419.8729	14.98454
420.0385	14.40044
420.204	11.93297
420.3696	15.85626
420.5352	19.56297
420.7007	15.42579
420.8663	17.53143
421.0319	15.93436
421.1974	15.76227
421.3629	24.19893
421.5285	20.7365
421.694	18.8647
421.8595	13.32983
422.0251	19.40958
422.1906	19.81907
422.3561	16.12025
422.5216	13.29988
422.6871	13.21556
422.8526	15.55089
423.0181	16.80286
423.1835	15.26296
423.349	19.18383
423.5145	27.10329
423.68	19.87576
423.8454	22.34517
424.0109	17.63018
424.1763	19.33255
424.3418	20.8876
424.5072	18.31454
424.6726	18.76304
424.838	19.26637
425.0035	17.29575
425.1689	17.31348
425.3343	16.46179
425.4997	21.50435
425.6651	18.94011
425.8305	18.25698
425.9959	22.25326
426.1613	22.82058
426.3267	23.06405
426.492	20.04326
426.6574	22.39127
426.8228	25.86072
426.9881	22.4792
427.1534	16.04848
427.3188	15.72019
427.4841	17.29481
427.6495	15.86141
427.8148	17.53164
427.9801	20.69485
428.1454	20.45738
428.3107	23.80795
428.476	23.21898
428.6414	19.47632
428.8066	18.8373
428.9719	21.80984
429.1372	19.13921
429.3025	19.80896
429.4678	23.43251
429.633	24.16335
429.7983	17.96049
429.9636	19.69099
430.1288	15.73384
430.294	16.79496
430.4593	14.0355
430.6245	20.32395
430.7897	14.51273
430.955	17.06614
431.1202	17.6008
431.2854	25.09135
431.4506	21.60279
431.6158	21.32528
431.781	24.37368
431.9462	28.33661
432.1114	23.70715
432.2766	21.29795
432.4417	21.13069
432.6069	16.85846
432.772	19.61051
432.9372	24.65843
433.1024	20.29077
433.2675	25.90791
433.4326	18.71002
433.5977	19.9546
433.7629	17.45298
433.928	16.90598
434.0931	19.82187
434.2582	21.19112
434.4233	24.50633
434.5884	21.44378
434.7535	23.20616
434.9186	26.10431
435.0837	19.14874
435.2488	24.63713
435.4138	24.8474
435.5789	23.07136
435.744	22.95754
435.909	25.45039
436.0741	27.45086
436.2391	23.13734
436.4042	23.15693
436.5692	24.61325
436.7342	23.62762
436.8992	24.91905
437.0643	27.95798
437.2293	21.61412
437.3943	18.99359
437.5593	23.16862
437.7243	22.1762
437.8893	26.99634
438.0542	24.90574
438.2192	26.02073
438.3842	23.57257
438.5491	23.10391
438.7141	19.02518
438.8791	23.23287
439.044	26.04272
439.209	27.07117
439.3739	22.49551
439.5388	31.4045
439.7037	25.82227
439.8687	27.03558
440.0336	24.32223
440.1985	26.32086
440.3634	22.92015
440.5283	23.70842
440.6932	25.87999
440.8581	25.81596
441.0229	27.68952
441.1878	30.59189
441.3527	25.60998
441.5175	22.83419
441.6824	25.36096
441.8472	23.53964
442.0121	27.42337
442.1769	23.92769
442.3418	30.44299
442.5066	32.71709
442.6714	25.35741
442.8362	32.38424
443.001	30.69784
443.1659	24.1007
443.3307	26.62762
443.4955	27.86859
443.6602	29.86346
443.825	27.80115
443.9898	31.35641
444.1546	28.69792
444.3193	26.07562
444.4841	31.52902
444.6488	23.23598
444.8136	25.63203
444.9783	31.51413
445.1431	30.84126
445.3078	32.4846
445.4725	24.3256
445.6372	27.51217
445.802	26.25541
445.9667	26.33079
446.1314	26.15355
446.2961	25.02169
446.4608	27.5467
446.6255	29.89508
446.7901	28.2465
446.9548	24.59827
447.1195	31.99396
447.2841	31.84875
447.4488	28.61541
447.6134	31.68533
447.7781	31.72909
447.9427	29.01458
448.1074	30.16358
448.272	26.5439
448.4366	24.38883
448.6012	27.50373
448.7658	32.26551
448.9305	35.9497
449.095	30.92538
449.2596	30.12517
449.4242	31.06834
449.5888	29.56643
449.7534	26.75456
449.9179	25.37146
450.0825	26.66938
450.2471	29.96524
450.4116	25.48348
450.5762	34.34644
450.7407	33.86843
450.9052	32.31025
451.0698	30.27337
451.2343	30.88529
451.3988	30.40578
451.5633	29.08434
451.7278	30.15587
451.8923	30.68891
452.0568	32.99841
452.2213	35.2855
452.3858	30.21146
452.5503	35.36758
452.7148	32.46146
452.8792	31.83329
453.0437	28.3171
453.2081	29.14409
453.3726	29.48605
453.537	29.82903
453.7015	30.26274
453.8659	33.4036
454.0303	35.34673
454.1947	30.33953
454.3592	34.22091
454.5236	30.8945
454.688	33.74411
454.8524	29.72583
455.0168	32.32507
455.1811	34.37082
455.3455	37.56283
455.5099	36.67044
455.6743	29.24582
455.8386	34.33383
456.003	36.09417
456.1673	34.21415
456.3317	33.56501
456.496	31.46121
456.6603	38.72413
456.8246	38.26043
456.989	32.60182
457.1533	32.18151
457.3176	36.3191
457.4819	35.09224
457.6462	32.98014
457.8105	34.99964
457.9748	35.59145
458.1391	34.49472
458.3033	33.64503
458.4676	34.1652
458.6319	34.83689
458.7961	29.84833
458.9604	33.19872
459.1246	36.13463
459.2888	33.8071
459.4531	36.06711
459.6173	33.30999
459.7815	30.47024
459.9457	36.81392
460.11	30.47535
460.2741	33.93144
460.4384	32.97518
460.6025	39.24237
460.7667	35.73591
460.9309	34.32449
461.0951	35.0164
461.2592	35.86322
461.4234	34.04536
461.5876	30.9984
461.7517	29.36975
461.9159	29.3788
462.08	31.70273
462.2441	39.79457
462.4082	34.15624
462.5724	34.46153
462.7365	37.25328
462.9006	36.12825
463.0647	32.07605
463.2288	35.99607
463.3929	35.97047
463.557	35.24604
463.721	34.93936
463.8851	35.44235
464.0492	35.29624
464.2132	33.00184
464.3773	37.95691
464.5414	33.85775
464.7054	32.00869
464.8694	36.33484
465.0334	30.24107
465.1975	32.41143
465.3615	36.46176
465.5255	37.40835
465.6895	36.49766
465.8535	34.06502
466.0175	37.44355
466.1815	39.52499
466.3455	36.7019
466.5095	36.58594
466.6734	32.13729
466.8374	32.05265
467.0014	31.34052
467.1653	32.96368
467.3293	32.70201
467.4932	35.46048
467.6571	34.74513
467.8211	32.65472
467.985	32.45789
468.1489	34.72803
468.3128	35.61591
468.4767	38.02989
468.6406	38.35502
468.8045	36.95725
468.9684	34.98346
469.1323	37.21044
469.2962	35.45783
469.46	33.66039
469.6239	35.2458
469.7878	40.46551
469.9516	38.10491
470.1154	33.27029
470.2793	38.7422
470.4431	38.03815
470.607	35.12594
470.7708	37.29995
470.9346	35.21223
471.0984	36.19542
471.2622	39.42681
471.426	39.51027
471.5898	34.85202
471.7536	40.23419
471.9174	41.93064
472.0811	41.55274
472.2449	36.64329
472.4087	36.13987
472.5724	39.63543
472.7362	36.9482
472.8999	33.55051
473.0637	36.68373
473.2274	35.98744
473.3911	37.09002
473.5548	34.0792
473.7185	35.16368
473.8822	30.97945
474.0459	33.6586
474.2096	37.71817
474.3733	40.64426
474.537	37.33302
474.7007	36.46024
474.8643	38.72356
475.028	39.78524
475.1917	40.98409
475.3553	37.59207
475.519	33.69405
475.6826	39.77769
475.8463	35.14915
476.0099	32.4078
476.1735	37.92973
476.3371	39.67505
476.5007	39.46784
476.6643	36.81595
476.8279	33.13207
476.9915	34.95936
477.1551	36.56125
477.3187	39.54852
477.4823	37.84422
477.6458	40.64968
477.8094	38.48592
477.9729	40.15061
478.1365	36.98508
478.3	34.43013
478.4636	34.86886
478.6271	37.50509
478.7906	39.2439
478.9541	35.90766
479.1176	33.99485
479.2812	37.32814
479.4447	37.79163
479.6082	39.84227
479.7716	34.38453
479.9351	32.63172
480.0986	35.90104
480.2621	37.54522
480.4255	48.3493
480.589	45.16349
480.7524	36.6745
480.9159	34.39233
481.0793	39.46914
481.2428	39.17835
481.4062	38.32459
481.5696	38.77967
481.733	36.643
481.8964	34.02029
482.0598	34.20919
482.2232	41.5597
482.3866	38.38602
482.55	36.78276
482.7134	36.28067
482.8768	33.92445
483.0401	32.26803
483.2035	35.35664
483.3668	36.0995
483.5302	35.10801
483.6935	41.88626
483.8568	36.10279
484.0202	37.97485
484.1835	35.85597
484.3468	33.50468
484.5101	35.41645
484.6734	36.35921
484.8367	35.99863
485	37.65839
485.1633	41.84882
485.3266	39.66331
485.4899	35.43263
485.6531	32.33425
485.8164	34.09333
485.9796	33.7807
486.1429	29.64081
486.3061	32.02505
486.4694	30.8363
486.6326	34.69335
486.7958	44.61522
486.959	40.81643
487.1223	32.19881
487.2855	34.48787
487.4486	38.52534
487.6118	36.56921
487.775	35.15553
487.9382	37.03848
488.1014	37.96226
488.2646	34.15825
488.4277	35.90713
488.5909	36.9023
488.754	35.44757
488.9171	35.44882
489.0803	37.05292
489.2434	34.57898
489.4066	41.92283
489.5697	41.99751
489.7328	40.43238
489.8959	44.55866
490.059	36.49435
490.2221	35.757
490.3852	36.07604
490.5482	37.08684
490.7113	36.82864
490.8744	37.70147
491.0374	39.12974
491.2005	38.15561
491.3636	40.95379
491.5266	38.23082
491.6896	41.44835
491.8527	35.34451
492.0157	38.74299
492.1787	39.49631
492.3417	35.91655
492.5047	41.98159
492.6677	43.77113
492.8307	38.16139
492.9937	43.80973
493.1567	40.77279
493.3196	40.90479
493.4826	40.57977
493.6456	35.08316
493.8085	42.70228
493.9715	41.58191
494.1344	32.96416
494.2974	39.0748
494.4603	40.07032
494.6232	41.80782
494.7861	42.06151
494.949	38.60235
495.1119	39.71588
495.2748	41.3471
495.4377	44.55735
495.6006	39.47264
495.7635	39.21946
495.9264	38.90884
496.0892	37.4942
496.2521	39.67398
496.4149	43.14376
496.5778	40.81115
496.7407	39.96546
496.9035	44.00406
497.0663	44.00434
497.2291	35.48465
497.3919	36.84428
497.5547	40.80796
497.7176	42.16449
497.8804	38.77204
498.0432	38.64857
498.2059	40.78315
498.3687	36.58655
498.5315	39.83839
498.6942	39.61436
498.857	45.32583
499.0198	48.56353
499.1825	45.06684
499.3452	41.29797
499.508	42.962
499.6707	43.41474
499.8334	43.94339
499.9962	37.85342
500.1589	36.7919
500.3216	38.08556
500.4843	42.34834
500.6469	42.84028
500.8096	41.33484
500.9723	37.00859
501.135	34.93177
501.2976	38.16948
501.4603	39.54629
501.623	41.71653
501.7856	42.13684
501.9482	40.91739
502.1109	41.89299
502.2735	42.24654
502.4361	43.14517
502.5987	40.81097
502.7614	39.80357
502.924	43.15224
503.0865	41.22458
503.2491	38.16785
503.4117	39.42208
503.5743	41.12741
503.7368	36.55234
503.8994	41.74461
504.062	40.6349
504.2245	41.39992
504.3871	43.12814
504.5496	45.2823
504.7121	46.21595
504.8746	42.54879
505.0372	44.91356
505.1997	48.94304
505.3622	44.26496
505.5247	45.77147
505.6872	46.83542
505.8497	44.40611
506.0121	52.43974
506.1746	48.64074
506.3371	47.6254
506.4995	49.27642
506.662	45.61653
506.8244	42.24064
506.9869	49.41093
507.1493	50.10744
507.3117	44.31263
507.4742	43.66562
507.6366	48.11395
507.799	49.09404
507.9614	48.99138
508.1238	45.38066
508.2862	40.87386
508.4485	43.17201
508.6109	39.87578
508.7733	41.02932
508.9357	44.4963
509.098	51.16055
509.2604	48.30244
509.4227	47.50167
509.5851	49.50407
509.7474	46.45821
509.9097	42.67676
510.072	44.28803
510.2343	48.41303
510.3966	54.93232
510.5589	50.1452
510.7212	46.99929
510.8835	49.37563
511.0458	46.8157
511.2081	53.52734
511.3703	46.79596
511.5326	47.67272
511.6949	45.29642
511.8571	50.8271
512.0193	45.259
512.1816	46.71381
512.3438	48.29839
512.506	47.64218
512.6682	49.67439
512.8304	48.94955
512.9926	51.8588
513.1548	52.14804
513.317	49.58176
513.4792	50.56949
513.6414	54.28827
513.8035	52.7127
513.9657	54.80034
514.1279	53.4095
514.29	51.62044
514.4521	51.94172
514.6143	56.81108
514.7764	52.72727
514.9385	51.1302
515.1006	55.46549
515.2628	53.30899
515.4249	55.11879
515.587	54.07347
515.7491	54.61543
515.9111	55.46021
516.0732	55.33325
516.2353	52.61657
