SPECTRUM DATA FILE
SpectrumCount:	1
PixelCount:	3648
UserName:	ToughBook User
SampleName:	
LightSource:	
Comments:	
DeviceName:	Qwave
DeviceManufacturer:	Broadcom
DeviceSerialNo:	11311

Name:	last spectrum
Date:	2024-05-02T15:06:16.3070243+02:00
ExposureTime:	0.02
TemporalAvg:	1
IntensityUnit:	normalizedCounts
CCDLoadLevel:	0.02452125
Temperature:	28.38461
DiagramColor:	200
ProcessingSteps:	335

Wavelength [nm]	Intensity1
334.421	2.858995
334.5891	6.488364
334.7573	8.975525
334.9254	4.016824
335.0935	6.269135
335.2616	4.83702
335.4297	4.810023
335.5978	4.382642
335.7659	7.210845
335.934	2.997325
336.1021	6.505873
336.2701	6.674998
336.4382	1.410424
336.6063	6.463236
336.7744	10.06345
336.9424	11.88776
337.1105	5.779823
337.2785	6.097375
337.4466	9.085872
337.6146	2.599609
337.7827	1.596565
337.9507	3.390416
338.1187	4.862721
338.2867	3.855139
338.4548	7.026208
338.6228	4.683798
338.7908	3.793969
338.9588	3.781103
339.1268	0.0665088
339.2948	4.360418
339.4628	4.206423
339.6308	9.129592
339.7988	7.225959
339.9667	6.586541
340.1347	4.670316
340.3027	5.280135
340.4707	8.752725
340.6386	5.811033
340.8066	2.556607
340.9745	1.310996
341.1425	2.733989
341.3104	5.658642
341.4784	5.322065
341.6463	4.040893
341.8142	6.682917
341.9821	3.69998
342.1501	6.2288
342.318	6.307948
342.4859	0.1372987
342.6538	4.148305
342.8217	4.654441
342.9896	3.113496
343.1575	6.322416
343.3254	8.059312
343.4933	2.304163
343.6612	2.910098
343.829	6.176129
343.9969	7.332019
344.1648	1.235016
344.3326	4.912554
344.5005	6.001133
344.6683	8.940979
344.8362	8.402129
345.004	6.066729
345.1719	6.016208
345.3397	9.232558
345.5075	4.502705
345.6754	3.561902
345.8432	-1.36273
346.011	2.170372
346.1788	4.340709
346.3466	3.609262
346.5144	5.658966
346.6822	2.780256
346.85	3.846394
347.0178	-0.3186302
347.1856	1.880813
347.3534	0.4949155
347.5211	5.18831
347.6889	4.137691
347.8567	1.387019
348.0244	1.258677
348.1922	7.633641
348.3599	4.669201
348.5277	3.574482
348.6954	2.133038
348.8632	1.794861
349.0309	5.520168
349.1986	3.1473
349.3663	3.169904
349.5341	4.049013
349.7018	3.804471
349.8695	5.585769
350.0372	2.432212
350.2049	2.079707
350.3726	5.630893
350.5403	3.304197
350.7079	4.954768
350.8756	1.838108
351.0433	3.340901
351.211	3.719751
351.3786	6.698278
351.5463	6.804821
351.714	1.339252
351.8816	5.656423
352.0493	2.0775
352.2169	6.800131
352.3846	4.601762
352.5522	4.514484
352.7198	6.538927
352.8875	3.513274
353.0551	4.873744
353.2227	3.698635
353.3903	2.392137
353.5579	4.351367
353.7255	2.87364
353.8931	4.596678
354.0607	3.419762
354.2283	6.524749
354.3958	5.782497
354.5634	5.985917
354.731	9.428149
354.8986	10.6576
355.0661	3.998578
355.2337	4.07196
355.4012	7.170606
355.5688	5.383546
355.7363	7.801404
355.9039	7.097202
356.0714	7.383611
356.239	4.130258
356.4065	5.846518
356.574	7.329074
356.7415	2.09049
356.909	2.963364
357.0765	3.36509
357.244	8.391151
357.4115	5.433448
357.579	7.910607
357.7465	4.383498
357.914	6.383791
358.0815	2.509997
358.249	2.046194
358.4164	4.443892
358.5839	4.332901
358.7513	2.368483
358.9188	3.037313
359.0862	5.068205
359.2537	-0.232181
359.4211	6.706456
359.5886	5.032492
359.756	3.241276
359.9234	6.206978
360.0909	6.180838
360.2583	6.01316
360.4257	6.197537
360.5931	6.073427
360.7605	4.640193
360.9279	6.200395
361.0953	5.928338
361.2627	8.170412
361.4301	5.426129
361.5974	8.188943
361.7648	8.659454
361.9322	2.852805
362.0995	3.190115
362.2669	1.580088
362.4343	4.629165
362.6016	10.44682
362.769	6.733994
362.9363	9.612096
363.1036	5.707203
363.271	1.391306
363.4383	3.410925
363.6056	3.90764
363.7729	4.078599
363.9402	7.217202
364.1075	11.93783
364.2748	5.381937
364.4421	5.59041
364.6094	8.695327
364.7767	9.276958
364.944	5.463994
365.1113	11.33199
365.2786	6.884908
365.4458	8.034598
365.6131	9.504749
365.7803	9.520039
365.9476	10.26151
366.1148	10.42913
366.2821	13.07869
366.4493	6.583796
366.6166	7.989794
366.7838	8.748834
366.951	8.655091
367.1182	8.695758
367.2855	8.103091
367.4527	3.557471
367.6199	6.558
367.7871	10.20861
367.9543	5.754229
368.1215	3.74104
368.2886	8.236987
368.4558	6.468369
368.623	4.751632
368.7902	7.15769
368.9573	3.099613
369.1245	10.18437
369.2917	10.40544
369.4588	11.67698
369.6259	9.938655
369.7931	7.809216
369.9602	9.193159
370.1274	4.372012
370.2945	5.777203
370.4616	5.803985
370.6287	8.823651
370.7958	4.796777
370.963	4.130917
371.1301	7.799387
371.2971	7.667927
371.4643	7.000075
371.6313	7.078605
371.7984	3.094745
371.9655	5.901818
372.1326	7.181535
372.2997	5.03908
372.4667	8.948813
372.6338	10.26149
372.8008	12.04152
372.9679	6.717342
373.1349	6.69597
373.3019	7.728534
373.469	8.917287
373.636	3.962059
373.803	4.775859
373.9701	5.18337
374.1371	6.753012
374.3041	7.018391
374.4711	4.972127
374.6381	6.550725
374.8051	6.168897
374.9721	11.64342
375.1391	9.649772
375.3061	8.963392
375.473	9.47052
375.64	5.34509
375.8069	8.846236
375.9739	7.688293
376.1409	5.738238
376.3078	6.328612
376.4748	7.937734
376.6417	10.01857
376.8087	7.535417
376.9756	8.135005
377.1425	9.219799
377.3094	7.914882
377.4763	9.307335
377.6432	8.852085
377.8102	7.828387
377.9771	8.195526
378.144	5.081635
378.3109	11.78576
378.4777	10.72273
378.6446	8.986168
378.8115	6.86186
378.9784	9.830438
379.1452	7.711085
379.3121	8.419315
379.4789	8.953408
379.6458	7.659855
379.8127	7.399557
379.9795	6.297842
380.1463	9.320444
380.3131	8.095595
380.48	9.135588
380.6468	8.9419
380.8136	9.486577
380.9804	8.500084
381.1472	9.223269
381.314	7.956826
381.4808	7.616828
381.6476	8.346472
381.8144	3.827497
381.9812	10.2951
382.148	7.079644
382.3147	10.13323
382.4815	7.575531
382.6483	9.01186
382.815	5.488746
382.9818	11.07684
383.1485	7.406574
383.3153	1.127719
383.482	6.78803
383.6487	6.622772
383.8155	8.001672
383.9822	6.544402
384.1489	10.96685
384.3156	7.552552
384.4823	12.68726
384.649	12.01403
384.8157	5.731966
384.9824	3.077894
385.1491	7.875199
385.3158	8.547823
385.4825	9.864141
385.6491	8.520542
385.8158	8.1609
385.9825	10.38156
386.1491	10.46063
386.3157	6.491491
386.4824	10.51906
386.649	11.21534
386.8157	7.12389
386.9823	3.418305
387.1489	13.18961
387.3156	4.891826
387.4821	5.442482
387.6488	7.895512
387.8154	4.661191
387.982	8.000337
388.1486	8.650778
388.3152	9.673082
388.4818	6.812201
388.6483	11.09719
388.8149	8.261768
388.9815	6.164543
389.148	7.695329
389.3146	10.85369
389.4811	12.16525
389.6477	9.795413
389.8142	13.03014
389.9808	8.125982
390.1473	7.943069
390.3138	6.708912
390.4804	8.575027
390.6469	11.68625
390.8134	8.480607
390.9799	8.623005
391.1464	7.256369
391.3129	11.42904
391.4794	11.33888
391.6459	13.45444
391.8124	9.364527
391.9789	13.49095
392.1453	12.15566
392.3118	8.157972
392.4782	11.1455
392.6447	7.825294
392.8112	6.346007
392.9776	10.30128
393.144	12.48276
393.3105	9.905711
393.4769	11.01943
393.6433	12.11537
393.8098	10.35793
393.9762	10.46319
394.1426	10.06947
394.309	10.09113
394.4754	7.488737
394.6418	11.09752
394.8082	7.607898
394.9746	5.043415
395.141	7.590767
395.3073	10.24718
395.4737	6.082585
395.64	7.563643
395.8064	10.16625
395.9728	7.12488
396.1391	11.97373
396.3055	10.72871
396.4718	12.87037
396.6381	8.790013
396.8045	9.840058
396.9708	8.429911
397.1371	7.431523
397.3034	11.62152
397.4697	13.00505
397.636	11.15192
397.8023	7.907191
397.9686	6.654397
398.1349	11.03634
398.3012	8.888601
398.4675	11.80054
398.6337	11.58689
398.8	13.13997
398.9662	14.59082
399.1325	14.53127
399.2988	13.72471
399.465	9.074355
399.6313	10.24613
399.7975	12.68274
399.9637	14.09371
400.1299	13.28809
400.2961	12.12766
400.4624	16.31206
400.6286	14.47197
400.7948	10.17032
400.961	11.84356
401.1272	15.49475
401.2934	14.30667
401.4595	17.00516
401.6257	14.68275
401.7919	11.92768
401.9581	11.35506
402.1242	13.18428
402.2904	10.98198
402.4565	10.98588
402.6227	11.88965
402.7888	10.45694
402.955	13.74884
403.1211	16.49794
403.2872	17.05206
403.4533	11.71854
403.6194	16.87567
403.7856	16.74813
403.9517	16.6977
404.1177	10.65708
404.2838	10.61478
404.4499	12.24913
404.616	7.083113
404.7821	11.77691
404.9482	16.9645
405.1142	16.28308
405.2803	10.76316
405.4464	12.3779
405.6124	9.658734
405.7784	9.459953
405.9445	13.02241
406.1105	11.81284
406.2766	13.31357
406.4426	9.220866
406.6086	10.63291
406.7746	16.55827
406.9406	9.898977
407.1066	10.01245
407.2726	10.24957
407.4386	10.45048
407.6046	15.11061
407.7706	16.44466
407.9366	12.53367
408.1025	12.49489
408.2685	15.59645
408.4344	16.09588
408.6004	13.72111
408.7664	13.23619
408.9323	14.77853
409.0983	15.66652
409.2642	16.95408
409.4301	18.04253
409.596	12.95126
409.762	15.46826
409.9279	16.96487
410.0938	14.74546
410.2597	16.58437
410.4256	14.83459
410.5915	13.71661
410.7574	17.95998
410.9232	16.30741
411.0891	18.32365
411.255	12.62855
411.4209	17.1354
411.5867	14.37587
411.7526	14.25824
411.9184	13.60851
412.0843	13.59626
412.2501	13.03183
412.4159	20.85665
412.5818	18.60802
412.7476	14.98812
412.9134	19.91782
413.0792	14.0301
413.245	16.25524
413.4108	16.89582
413.5766	18.19949
413.7424	17.18548
413.9082	16.7841
414.074	19.70154
414.2397	17.26151
414.4055	16.45411
414.5713	17.79473
414.737	18.41586
414.9028	18.42572
415.0685	18.54794
415.2343	20.65718
415.4	18.0385
415.5658	14.47339
415.7315	11.78839
415.8972	17.94597
416.0629	17.19642
416.2286	17.52088
416.3943	18.8796
416.56	21.03428
416.7257	18.29908
416.8914	15.33285
417.0571	15.08251
417.2228	18.92692
417.3884	13.31557
417.5541	18.54376
417.7198	18.1478
417.8854	20.76452
418.0511	22.46341
418.2167	13.45713
418.3824	14.38894
418.548	17.19645
418.7136	17.4104
418.8792	18.99753
419.0449	16.65552
419.2105	17.51088
419.3761	17.01878
419.5417	20.39314
419.7073	16.48236
419.8729	10.14975
420.0385	12.6052
420.204	17.2426
420.3696	18.92974
420.5352	17.80317
420.7007	19.38774
420.8663	21.70009
421.0319	17.59702
421.1974	18.4924
421.3629	17.04456
421.5285	17.22503
421.694	19.80338
421.8595	19.38187
422.0251	20.30965
422.1906	21.12894
422.3561	16.86332
422.5216	20.20491
422.6871	13.80709
422.8526	18.03045
423.0181	19.62602
423.1835	19.39725
423.349	18.95236
423.5145	19.3916
423.68	22.62197
423.8454	17.91556
424.0109	22.55544
424.1763	24.11063
424.3418	24.3835
424.5072	26.40805
424.6726	23.79957
424.838	23.11844
425.0035	19.70535
425.1689	22.03867
425.3343	24.85324
425.4997	22.4996
425.6651	24.69661
425.8305	23.79527
425.9959	18.4352
426.1613	19.32487
426.3267	23.99113
426.492	23.75748
426.6574	24.07098
426.8228	23.1922
426.9881	20.65219
427.1534	20.51723
427.3188	16.85081
427.4841	25.28724
427.6495	19.88165
427.8148	27.04765
427.9801	27.3248
428.1454	18.42443
428.3107	21.46008
428.476	20.7821
428.6414	21.6873
428.8066	24.03282
428.9719	21.68752
429.1372	20.63487
429.3025	25.10799
429.4678	25.53578
429.633	24.06437
429.7983	23.4682
429.9636	22.92008
430.1288	21.47318
430.294	15.71201
430.4593	16.81058
430.6245	20.3335
430.7897	20.18073
430.955	23.2588
431.1202	18.74323
431.2854	20.25948
431.4506	23.71963
431.6158	24.4778
431.781	28.33128
431.9462	25.88742
432.1114	22.87
432.2766	24.78421
432.4417	25.24768
432.6069	23.68026
432.772	21.8116
432.9372	27.88868
433.1024	24.32956
433.2675	22.29995
433.4326	25.59834
433.5977	26.09148
433.7629	26.65249
433.928	22.92928
434.0931	19.73819
434.2582	21.37652
434.4233	23.41171
434.5884	21.95163
434.7535	24.9367
434.9186	25.43427
435.0837	25.20477
435.2488	22.38554
435.4138	26.12527
435.5789	25.42038
435.744	23.01927
435.909	24.96247
436.0741	27.82236
436.2391	26.83551
436.4042	28.94457
436.5692	26.3997
436.7342	29.75455
436.8992	28.57333
437.0643	26.44628
437.2293	25.956
437.3943	30.23306
437.5593	26.11538
437.7243	26.70797
437.8893	26.4109
438.0542	28.46129
438.2192	28.95155
438.3842	27.95613
438.5491	21.6657
438.7141	26.70768
438.8791	24.81092
439.044	31.73576
439.209	30.39612
439.3739	28.61907
439.5388	28.54066
439.7037	30.72905
439.8687	28.71548
440.0336	31.30423
440.1985	30.50714
440.3634	24.60901
440.5283	25.5881
440.6932	26.99145
440.8581	29.04144
441.0229	33.91844
441.1878	32.77159
441.3527	32.24223
441.5175	33.07793
441.6824	28.38583
441.8472	27.08169
442.0121	33.73638
442.1769	29.48987
442.3418	29.42154
442.5066	29.03606
442.6714	29.3594
442.8362	31.57368
443.001	32.8689
443.1659	29.9274
443.3307	25.96754
443.4955	25.36484
443.6602	30.39375
443.825	24.5062
443.9898	27.79123
444.1546	34.39276
444.3193	33.85127
444.4841	32.24469
444.6488	31.15799
444.8136	31.76395
444.9783	29.70174
445.1431	32.24942
445.3078	27.95955
445.4725	32.49005
445.6372	32.23852
445.802	27.30211
445.9667	25.86738
446.1314	31.31222
446.2961	32.38945
446.4608	34.87387
446.6255	32.36155
446.7901	34.47153
446.9548	33.36821
447.1195	31.77445
447.2841	32.8118
447.4488	32.42824
447.6134	30.94357
447.7781	30.79883
447.9427	33.36335
448.1074	30.2357
448.272	33.99111
448.4366	29.06976
448.6012	30.72616
448.7658	31.60506
448.9305	30.27001
449.095	33.42833
449.2596	34.2864
449.4242	39.43083
449.5888	35.89547
449.7534	37.00313
449.9179	36.11203
450.0825	33.64611
450.2471	34.36425
450.4116	31.93408
450.5762	31.83768
450.7407	37.34818
450.9052	33.36905
451.0698	35.20683
451.2343	32.97161
451.3988	36.1692
451.5633	34.58241
451.7278	31.29355
451.8923	35.55911
452.0568	40.70517
452.2213	34.72924
452.3858	33.75965
452.5503	35.75262
452.7148	30.16306
452.8792	31.00691
453.0437	32.56636
453.2081	31.81363
453.3726	33.1184
453.537	36.62146
453.7015	35.12194
453.8659	33.20464
454.0303	38.14516
454.1947	34.85816
454.3592	36.55848
454.5236	32.619
454.688	34.22958
454.8524	39.72757
455.0168	36.23925
455.1811	36.0156
455.3455	37.71587
455.5099	33.93084
455.6743	35.26225
455.8386	37.1141
456.003	39.20712
456.1673	39.11969
456.3317	37.64154
456.496	37.23392
456.6603	36.13263
456.8246	34.51535
456.989	38.896
457.1533	36.80289
457.3176	37.4463
457.4819	36.53402
457.6462	32.08343
457.8105	36.08005
457.9748	41.56455
458.1391	38.81619
458.3033	35.58503
458.4676	35.7225
458.6319	36.30066
458.7961	36.52897
458.9604	36.73724
459.1246	35.42501
459.2888	41.70306
459.4531	36.80337
459.6173	40.83799
459.7815	36.37145
459.9457	35.67212
460.11	40.13402
460.2741	39.48321
460.4384	38.41075
460.6025	39.05606
460.7667	40.81065
460.9309	38.57648
461.0951	41.80076
461.2592	44.53369
461.4234	46.58916
461.5876	41.37452
461.7517	37.04914
461.9159	37.74492
462.08	39.51865
462.2441	38.71346
462.4082	39.35633
462.5724	40.12893
462.7365	42.12102
462.9006	40.70013
463.0647	41.37053
463.2288	39.56761
463.3929	37.80101
463.557	39.2137
463.721	37.05481
463.8851	38.85447
464.0492	39.94969
464.2132	35.44365
464.3773	37.86295
464.5414	33.28201
464.7054	36.13979
464.8694	37.2064
465.0334	37.50766
465.1975	36.66908
465.3615	38.23542
465.5255	41.53173
465.6895	36.62135
465.8535	39.78234
466.0175	33.90549
466.1815	39.46815
466.3455	38.13821
466.5095	37.44579
466.6734	40.93361
466.8374	36.50336
467.0014	37.82832
467.1653	35.17552
467.3293	35.40421
467.4932	37.16423
467.6571	38.85098
467.8211	38.90223
467.985	36.00543
468.1489	35.67381
468.3128	38.33006
468.4767	39.72197
468.6406	43.45109
468.8045	39.82043
468.9684	41.78831
469.1323	38.32804
469.2962	42.29949
469.46	38.32148
469.6239	39.34941
469.7878	39.8318
469.9516	36.30636
470.1154	36.74239
470.2793	38.46867
470.4431	42.88966
470.607	41.09362
470.7708	39.0874
470.9346	40.53529
471.0984	41.39296
471.2622	41.22691
471.426	41.52367
471.5898	43.38353
471.7536	48.85146
471.9174	45.31116
472.0811	42.74722
472.2449	42.45072
472.4087	43.31562
472.5724	44.73967
472.7362	43.99924
472.8999	43.01152
473.0637	44.30957
473.2274	39.60965
473.3911	41.55967
473.5548	43.59788
473.7185	42.44393
473.8822	41.32182
474.0459	38.44099
474.2096	43.21941
474.3733	43.49868
474.537	41.91387
474.7007	42.13548
474.8643	41.89049
475.028	46.52601
475.1917	39.47132
475.3553	38.90808
475.519	38.55098
475.6826	35.67108
475.8463	38.2069
476.0099	45.77032
476.1735	40.95701
476.3371	40.80477
476.5007	40.1109
476.6643	40.47052
476.8279	35.68157
476.9915	39.11781
477.1551	49.01705
477.3187	50.09321
477.4823	43.30706
477.6458	41.25016
477.8094	46.94627
477.9729	41.07297
478.1365	42.82085
478.3	39.44747
478.4636	40.54035
478.6271	38.14297
478.7906	40.52538
478.9541	43.357
479.1176	44.13165
479.2812	42.5969
479.4447	43.92222
479.6082	41.3087
479.7716	40.58827
479.9351	38.13237
480.0986	41.79175
480.2621	40.62629
480.4255	41.46673
480.589	40.7916
480.7524	39.60837
480.9159	38.77444
481.0793	39.08848
481.2428	43.64384
481.4062	41.29368
481.5696	43.00388
481.733	44.12882
481.8964	35.85124
482.0598	41.55312
482.2232	44.2059
482.3866	44.83525
482.55	43.01886
482.7134	39.53692
482.8768	42.27691
483.0401	42.52272
483.2035	38.64979
483.3668	38.36978
483.5302	41.24793
483.6935	38.31475
483.8568	37.97173
484.0202	43.34296
484.1835	44.00062
484.3468	37.78419
484.5101	37.03132
484.6734	39.87535
484.8367	44.13136
485	42.5678
485.1633	42.41275
485.3266	40.62248
485.4899	41.50085
485.6531	41.17142
485.8164	38.84136
485.9796	30.75051
486.1429	35.3046
486.3061	35.94819
486.4694	36.70057
486.6326	38.78905
486.7958	37.81306
486.959	36.10564
487.1223	39.79036
487.2855	37.22243
487.4486	34.5671
487.6118	35.27316
487.775	39.52314
487.9382	42.12484
488.1014	45.90532
488.2646	43.41453
488.4277	41.3476
488.5909	40.27449
488.754	38.41381
488.9171	36.3645
489.0803	41.01821
489.2434	41.16198
489.4066	44.90689
489.5697	38.28679
489.7328	44.87377
489.8959	52.40149
490.059	52.51056
490.2221	42.46618
490.3852	43.79236
490.5482	43.9927
490.7113	39.37439
490.8744	39.96688
491.0374	37.91933
491.2005	39.39031
491.3636	43.82299
491.5266	48.27976
491.6896	44.44651
491.8527	42.67865
492.0157	37.22299
492.1787	43.32098
492.3417	43.21599
492.5047	42.03777
492.6677	44.17649
492.8307	40.53727
492.9937	47.82031
493.1567	44.37474
493.3196	41.53112
493.4826	43.84048
493.6456	37.54028
493.8085	42.02026
493.9715	40.88933
494.1344	41.36827
494.2974	47.47552
494.4603	49.07067
494.6232	46.60474
494.7861	44.40637
494.949	43.60078
495.1119	45.50023
495.2748	45.31278
495.4377	41.32743
495.6006	43.55982
495.7635	42.48451
495.9264	46.06298
496.0892	46.38181
496.2521	53.37999
496.4149	49.67782
496.5778	46.33919
496.7407	45.88873
496.9035	44.50532
497.0663	46.00862
497.2291	43.49998
497.3919	46.55008
497.5547	51.84352
497.7176	50.71039
497.8804	52.74569
498.0432	50.80083
498.2059	42.9602
498.3687	39.11939
498.5315	45.39615
498.6942	43.73078
498.857	48.18198
499.0198	48.00185
499.1825	42.16233
499.3452	39.64882
499.508	47.4819
499.6707	49.23204
499.8334	47.43353
499.9962	43.05886
500.1589	43.99212
500.3216	45.91173
500.4843	47.12156
500.6469	44.74653
500.8096	51.50066
500.9723	44.21795
501.135	39.7027
501.2976	39.27834
501.4603	36.81543
501.623	43.99128
501.7856	47.40855
501.9482	46.17744
502.1109	45.7645
502.2735	43.86058
502.4361	44.5396
502.5987	45.49179
502.7614	41.52626
502.924	45.33556
503.0865	46.57359
503.2491	52.2494
503.4117	48.73679
503.5743	48.56906
503.7368	41.85079
503.8994	46.42255
504.062	45.77141
504.2245	48.47636
504.3871	45.91926
504.5496	45.47503
504.7121	48.75279
504.8746	53.40628
505.0372	46.06122
505.1997	42.99677
505.3622	50.91493
505.5247	48.59499
505.6872	51.35167
505.8497	49.88237
506.0121	51.31364
506.1746	52.33444
506.3371	48.78366
506.4995	52.74292
506.662	54.95671
506.8244	49.61426
506.9869	51.71356
507.1493	47.90828
507.3117	49.21928
507.4742	48.50093
507.6366	50.62257
507.799	51.60215
507.9614	51.53666
508.1238	49.29767
508.2862	50.42878
508.4485	48.78152
508.6109	53.58182
508.7733	49.48563
508.9357	51.74451
509.098	49.00067
509.2604	52.88948
509.4227	54.24717
509.5851	52.57003
509.7474	50.92219
509.9097	54.24178
510.072	54.67693
510.2343	51.21106
510.3966	49.12384
510.5589	53.17769
510.7212	48.10473
510.8835	50.36376
511.0458	56.42767
511.2081	50.00437
511.3703	54.24237
511.5326	58.06946
511.6949	54.31302
511.8571	57.2434
512.0193	57.59689
512.1816	56.16706
512.3438	52.58032
512.506	57.86757
512.6682	53.24802
512.8304	57.53143
512.9926	59.53651
513.1548	53.49779
513.317	49.91261
513.4792	57.13478
513.6414	57.69989
513.8035	59.18268
513.9657	55.35373
514.1279	54.64194
514.29	53.3766
514.4521	54.40348
514.6143	59.79637
514.7764	57.54571
514.9385	54.10418
515.1006	56.5977
515.2628	55.19732
515.4249	57.91606
515.587	55.72388
515.7491	54.66695
515.9111	60.80618
516.0732	59.33288
516.2353	55.91756
