SPECTRUM DATA FILE
SpectrumCount:	1
PixelCount:	3648
UserName:	ToughBook User
SampleName:	
LightSource:	
Comments:	
DeviceName:	Qwave
DeviceManufacturer:	Broadcom
DeviceSerialNo:	11311

Name:	last spectrum
Date:	2024-05-02T15:06:47.2397461+02:00
ExposureTime:	0.02
TemporalAvg:	1
IntensityUnit:	normalizedCounts
CCDLoadLevel:	0.02203952
Temperature:	28.27905
DiagramColor:	200
ProcessingSteps:	335

Wavelength [nm]	Intensity1
334.421	1.902985
334.5891	3.463141
334.7573	2.185892
334.9254	5.348006
335.0935	3.585108
335.2616	7.354944
335.4297	4.226556
335.5978	4.59899
335.7659	3.449059
335.934	0.584461
336.1021	3.699014
336.2701	0.9097369
336.4382	2.036492
336.6063	1.278274
336.7744	7.205175
336.9424	3.877446
337.1105	6.309947
337.2785	5.47048
337.4466	4.961478
337.6146	1.98001
337.7827	2.928854
337.9507	6.886834
338.1187	2.549058
338.2867	-1.078116
338.4548	4.433561
338.6228	5.590177
338.7908	1.427671
338.9588	6.972921
339.1268	-0.8894697
339.2948	3.285617
339.4628	4.207646
339.6308	4.584563
339.7988	4.355266
339.9667	5.15746
340.1347	5.916232
340.3027	5.781196
340.4707	3.468677
340.6386	1.946197
340.8066	1.906713
340.9745	4.811012
341.1425	5.022304
341.3104	3.209191
341.4784	5.437535
341.6463	1.592813
341.8142	2.684597
341.9821	-0.7269341
342.1501	4.300118
342.318	4.095252
342.4859	4.145345
342.6538	5.523594
342.8217	0.3298578
342.9896	1.923491
343.1575	6.436208
343.3254	7.026885
343.4933	6.476231
343.6612	6.29511
343.829	4.658555
343.9969	6.221224
344.1648	5.066003
344.3326	3.880861
344.5005	4.681082
344.6683	3.959398
344.8362	1.350923
345.004	-0.1139927
345.1719	8.530036
345.3397	4.641984
345.5075	4.610927
345.6754	-0.2765726
345.8432	2.804236
346.011	4.369552
346.1788	5.603224
346.3466	4.579237
346.5144	7.821629
346.6822	7.862275
346.85	8.587543
347.0178	2.500465
347.1856	2.297216
347.3534	3.325347
347.5211	4.22285
347.6889	5.425048
347.8567	5.867977
348.0244	2.22048
348.1922	3.130122
348.3599	9.252913
348.5277	4.913054
348.6954	7.535184
348.8632	5.063171
349.0309	4.223257
349.1986	3.545994
349.3663	4.852675
349.5341	9.737466
349.7018	6.918458
349.8695	7.699705
350.0372	9.326643
350.2049	2.006253
350.3726	0.3513059
350.5403	5.775894
350.7079	7.855033
350.8756	7.625177
351.0433	5.512696
351.211	5.612847
351.3786	4.274895
351.5463	1.993056
351.714	3.748698
351.8816	5.019726
352.0493	5.318388
352.2169	5.355391
352.3846	6.986762
352.5522	6.784741
352.7198	5.343045
352.8875	6.024768
353.0551	7.998994
353.2227	10.24776
353.3903	6.175545
353.5579	5.49739
353.7255	6.665746
353.8931	5.12152
354.0607	3.838699
354.2283	7.478443
354.3958	6.82351
354.5634	6.626247
354.731	5.112197
354.8986	6.658923
355.0661	3.07892
355.2337	9.198639
355.4012	10.45051
355.5688	6.5053
355.7363	6.580359
355.9039	5.893625
356.0714	6.183634
356.239	6.473814
356.4065	4.951589
356.574	6.067871
356.7415	1.684379
356.909	3.767791
357.0765	5.128881
357.244	6.940587
357.4115	5.062245
357.579	8.586246
357.7465	6.425838
357.914	0.3716753
358.0815	-0.5409729
358.249	5.013011
358.4164	4.534105
358.5839	5.550186
358.7513	6.810246
358.9188	2.760325
359.0862	5.268615
359.2537	5.995028
359.4211	3.63077
359.5886	4.695934
359.756	3.087972
359.9234	7.427611
360.0909	5.90584
360.2583	2.883565
360.4257	1.414092
360.5931	3.809745
360.7605	7.85402
360.9279	6.629011
361.0953	5.457088
361.2627	7.616653
361.4301	5.253253
361.5974	5.237075
361.7648	5.26413
361.9322	1.255653
362.0995	0.1895569
362.2669	3.650191
362.4343	5.087853
362.6016	5.387763
362.769	5.942721
362.9363	10.11478
363.1036	7.660227
363.271	6.051353
363.4383	5.081391
363.6056	-0.9146668
363.7729	4.079946
363.9402	9.675247
364.1075	8.439125
364.2748	11.15591
364.4421	4.991582
364.6094	5.716046
364.7767	6.396662
364.944	7.821249
365.1113	5.801981
365.2786	7.293607
365.4458	7.349381
365.6131	9.840137
365.7803	5.999379
365.9476	5.545338
366.1148	8.314857
366.2821	2.890296
366.4493	2.3062
366.6166	7.912796
366.7838	5.982013
366.951	5.914946
367.1182	6.569246
367.2855	6.661342
367.4527	5.397572
367.6199	6.599522
367.7871	2.653241
367.9543	6.245326
368.1215	3.840121
368.2886	3.127298
368.4558	4.300973
368.623	6.53055
368.7902	5.382193
368.9573	3.396788
369.1245	3.951513
369.2917	3.992171
369.4588	7.399533
369.6259	4.294326
369.7931	3.912004
369.9602	7.751743
370.1274	5.23323
370.2945	5.610641
370.4616	1.176975
370.6287	8.751973
370.7958	6.146592
370.963	5.788997
371.1301	5.486533
371.2971	6.411065
371.4643	4.844829
371.6313	4.013015
371.7984	5.783374
371.9655	6.799414
372.1326	8.403515
372.2997	3.740546
372.4667	9.606996
372.6338	9.96691
372.8008	8.024951
372.9679	11.50042
373.1349	9.82916
373.3019	8.891538
373.469	3.557758
373.636	6.494539
373.803	2.567991
373.9701	6.144063
374.1371	4.666601
374.3041	8.514309
374.4711	9.126441
374.6381	13.32938
374.8051	4.270859
374.9721	5.221699
375.1391	3.531354
375.3061	5.393868
375.473	8.537025
375.64	7.048855
375.8069	6.893517
375.9739	6.663974
376.1409	9.587476
376.3078	7.265739
376.4748	5.190876
376.6417	6.350852
376.8087	8.058201
376.9756	7.329706
377.1425	7.408046
377.3094	10.02567
377.4763	7.616941
377.6432	7.963324
377.8102	10.18053
377.9771	8.67526
378.144	9.351891
378.3109	7.767647
378.4777	5.984634
378.6446	3.332664
378.8115	7.042141
378.9784	7.875581
379.1452	6.236182
379.3121	5.935056
379.4789	8.128121
379.6458	6.75973
379.8127	7.405959
379.9795	5.303507
380.1463	6.525318
380.3131	4.390194
380.48	5.873388
380.6468	6.425035
380.8136	9.046442
380.9804	6.883862
381.1472	6.973126
381.314	13.59178
381.4808	5.26549
381.6476	5.313836
381.8144	6.315577
381.9812	5.767743
382.148	8.582835
382.3147	10.62768
382.4815	7.976404
382.6483	3.532013
382.815	5.391776
382.9818	6.673333
383.1485	9.728469
383.3153	7.063111
383.482	8.564685
383.6487	6.54112
383.8155	9.578114
383.9822	3.687529
384.1489	4.812507
384.3156	6.973163
384.4823	6.071559
384.649	7.087969
384.8157	9.088562
384.9824	10.60926
385.1491	3.103811
385.3158	5.405872
385.4825	6.391613
385.6491	5.743421
385.8158	10.6237
385.9825	7.939615
386.1491	5.142973
386.3157	3.498286
386.4824	9.086108
386.649	4.647932
386.8157	7.851164
386.9823	4.761923
387.1489	7.544246
387.3156	4.765394
387.4821	15.1617
387.6488	12.33103
387.8154	5.009343
387.982	6.698277
388.1486	6.75175
388.3152	6.5703
388.4818	9.233307
388.6483	7.584801
388.8149	6.76158
388.9815	5.893211
389.148	8.108278
389.3146	7.685368
389.4811	6.845979
389.6477	12.73314
389.8142	9.027951
389.9808	8.515826
390.1473	8.128761
390.3138	8.156658
390.4804	6.949034
390.6469	9.143116
390.8134	11.94367
390.9799	9.592092
391.1464	5.077264
391.3129	10.28733
391.4794	4.651517
391.6459	10.05944
391.8124	8.798779
391.9789	7.202051
392.1453	8.215597
392.3118	13.68297
392.4782	13.49039
392.6447	6.70417
392.8112	8.055085
392.9776	5.510526
393.144	9.183788
393.3105	9.055443
393.4769	8.445662
393.6433	10.98259
393.8098	12.95382
393.9762	9.132627
394.1426	10.70095
394.309	11.29393
394.4754	11.63095
394.6418	6.785787
394.8082	6.633842
394.9746	10.73456
395.141	9.402297
395.3073	12.87738
395.4737	9.319576
395.64	9.709907
395.8064	10.88089
395.9728	10.40644
396.1391	7.070881
396.3055	12.6161
396.4718	11.94853
396.6381	9.626492
396.8045	6.55016
396.9708	7.296187
397.1371	8.067532
397.3034	5.818858
397.4697	13.85074
397.636	10.72346
397.8023	10.82081
397.9686	11.02656
398.1349	10.09225
398.3012	3.076946
398.4675	11.90838
398.6337	9.210559
398.8	7.65283
398.9662	5.183077
399.1325	12.16423
399.2988	12.42465
399.465	16.36542
399.6313	14.73632
399.7975	10.52525
399.9637	13.99535
400.1299	10.6635
400.2961	16.92245
400.4624	13.69791
400.6286	10.16513
400.7948	11.98399
400.961	13.95238
401.1272	12.32807
401.2934	13.03448
401.4595	11.221
401.6257	14.4252
401.7919	14.74411
401.9581	9.242033
402.1242	13.48516
402.2904	13.37308
402.4565	12.80826
402.6227	11.51627
402.7888	12.84139
402.955	8.305749
403.1211	10.42237
403.2872	12.3224
403.4533	12.26149
403.6194	11.13402
403.7856	15.09822
403.9517	14.49048
404.1177	13.42964
404.2838	13.83659
404.4499	13.61654
404.616	11.37632
404.7821	13.97042
404.9482	10.38685
405.1142	16.01721
405.2803	13.78492
405.4464	10.19918
405.6124	11.32671
405.7784	11.01867
405.9445	11.74088
406.1105	12.21747
406.2766	11.55506
406.4426	11.29424
406.6086	9.82515
406.7746	12.52184
406.9406	14.84208
407.1066	13.1585
407.2726	15.25307
407.4386	12.67295
407.6046	14.84583
407.7706	14.31924
407.9366	13.03301
408.1025	19.70229
408.2685	12.83785
408.4344	16.60113
408.6004	14.43875
408.7664	15.25937
408.9323	15.09834
409.0983	14.35846
409.2642	16.66026
409.4301	17.64781
409.596	16.16979
409.762	12.4906
409.9279	13.47215
410.0938	8.746932
410.2597	14.72704
410.4256	18.17787
410.5915	17.81045
410.7574	12.6212
410.9232	16.31955
411.0891	14.02
411.255	14.21053
411.4209	17.22763
411.5867	15.31521
411.7526	12.99461
411.9184	15.17948
412.0843	17.49485
412.2501	14.92091
412.4159	19.06121
412.5818	17.75952
412.7476	15.2981
412.9134	12.22105
413.0792	12.7941
413.245	16.3494
413.4108	18.04397
413.5766	16.98243
413.7424	20.81
413.9082	19.02628
414.074	13.77399
414.2397	14.73534
414.4055	15.47302
414.5713	18.80251
414.737	16.0092
414.9028	13.15449
415.0685	14.27289
415.2343	13.82634
415.4	15.09109
415.5658	19.83504
415.7315	19.14901
415.8972	19.98397
416.0629	18.94412
416.2286	15.3279
416.3943	15.26694
416.56	18.77138
416.7257	16.04895
416.8914	15.42131
417.0571	12.3684
417.2228	17.42989
417.3884	20.3018
417.5541	12.15874
417.7198	14.26999
417.8854	15.42375
418.0511	16.85855
418.2167	11.28374
418.3824	10.46872
418.548	13.62074
418.7136	16.21058
418.8792	13.23925
419.0449	15.46292
419.2105	13.12055
419.3761	13.81984
419.5417	15.40357
419.7073	16.29234
419.8729	15.82195
420.0385	16.71588
420.204	21.70889
420.3696	15.65772
420.5352	22.21247
420.7007	20.803
420.8663	14.73063
421.0319	16.49133
421.1974	23.24457
421.3629	16.66007
421.5285	20.50169
421.694	20.04501
421.8595	19.89223
422.0251	20.33232
422.1906	15.5881
422.3561	16.89338
422.5216	16.66729
422.6871	17.46101
422.8526	23.38549
423.0181	16.15146
423.1835	17.41106
423.349	18.29803
423.5145	17.39729
423.68	19.10974
423.8454	17.4191
424.0109	21.36521
424.1763	24.11535
424.3418	22.86496
424.5072	19.77926
424.6726	16.54231
424.838	17.91228
425.0035	24.25357
425.1689	21.8228
425.3343	26.00347
425.4997	20.98567
425.6651	18.38459
425.8305	20.67666
425.9959	14.1112
426.1613	19.03032
426.3267	18.84454
426.492	18.91414
426.6574	17.29248
426.8228	22.57477
426.9881	19.73724
427.1534	20.45758
427.3188	25.24735
427.4841	19.25941
427.6495	21.73829
427.8148	26.4691
427.9801	25.31627
428.1454	18.41812
428.3107	21.54525
428.476	20.46696
428.6414	22.89022
428.8066	25.43624
428.9719	21.17274
429.1372	19.14335
429.3025	18.79048
429.4678	18.95172
429.633	19.05678
429.7983	17.49086
429.9636	14.61412
430.1288	14.75681
430.294	17.63824
430.4593	16.79576
430.6245	16.40394
430.7897	15.49493
430.955	14.54403
431.1202	14.64296
431.2854	17.70985
431.4506	19.47877
431.6158	22.32822
431.781	24.38544
431.9462	20.91758
432.1114	20.34455
432.2766	19.77421
432.4417	18.2716
432.6069	16.6414
432.772	19.53379
432.9372	20.13282
433.1024	23.70499
433.2675	27.9706
433.4326	22.65139
433.5977	22.01483
433.7629	20.63747
433.928	23.10571
434.0931	19.18316
434.2582	21.37314
434.4233	16.70656
434.5884	19.72506
434.7535	23.92307
434.9186	24.6711
435.0837	20.86536
435.2488	20.68915
435.4138	20.53074
435.5789	21.81904
435.744	22.09178
435.909	23.41283
436.0741	29.74717
436.2391	24.88495
436.4042	28.47484
436.5692	25.23072
436.7342	24.14909
436.8992	25.90669
437.0643	25.13908
437.2293	26.59242
437.3943	25.35009
437.5593	22.21035
437.7243	25.18831
437.8893	28.74548
438.0542	22.171
438.2192	18.75138
438.3842	18.25126
438.5491	23.10241
438.7141	24.96219
438.8791	27.20179
439.044	27.65298
439.209	24.94648
439.3739	27.50595
439.5388	24.32526
439.7037	27.2374
439.8687	28.21771
440.0336	25.31566
440.1985	28.56113
440.3634	22.24465
440.5283	25.29087
440.6932	25.15897
440.8581	19.27593
441.0229	28.20393
441.1878	31.72895
441.3527	27.46347
441.5175	22.38869
441.6824	22.18164
441.8472	28.33386
442.0121	24.87568
442.1769	26.19578
442.3418	30.13904
442.5066	27.80622
442.6714	26.6169
442.8362	22.81287
443.001	28.10969
443.1659	31.8859
443.3307	24.0674
443.4955	27.29233
443.6602	31.22144
443.825	31.24448
443.9898	29.9216
444.1546	30.19903
444.3193	25.59911
444.4841	29.6739
444.6488	26.51795
444.8136	28.33412
444.9783	32.66121
445.1431	35.39071
445.3078	28.37143
445.4725	23.67561
445.6372	25.08561
445.802	26.33089
445.9667	24.43677
446.1314	24.2587
446.2961	26.44619
446.4608	24.76808
446.6255	29.63196
446.7901	27.34282
446.9548	23.8383
447.1195	26.66427
447.2841	27.23992
447.4488	26.93733
447.6134	28.44634
447.7781	29.77391
447.9427	33.27215
448.1074	27.27306
448.272	27.36715
448.4366	24.75185
448.6012	24.22385
448.7658	27.83682
448.9305	32.9121
449.095	27.31924
449.2596	25.6304
449.4242	29.86482
449.5888	29.31102
449.7534	29.84881
449.9179	29.04517
450.0825	28.4881
450.2471	26.79993
450.4116	29.62727
450.5762	32.29033
450.7407	30.60452
450.9052	36.36125
451.0698	34.6402
451.2343	27.01468
451.3988	28.68283
451.5633	30.17885
451.7278	27.23386
451.8923	27.35117
452.0568	30.34992
452.2213	33.87529
452.3858	30.99213
452.5503	26.99546
452.7148	31.42684
452.8792	27.14642
453.0437	26.74678
453.2081	31.44378
453.3726	32.12765
453.537	30.98341
453.7015	29.57326
453.8659	32.41538
454.0303	31.74468
454.1947	28.93945
454.3592	31.14111
454.5236	29.89882
454.688	27.81915
454.8524	33.727
455.0168	31.15857
455.1811	29.56015
455.3455	27.69118
455.5099	32.1987
455.6743	34.35977
455.8386	33.3811
456.003	35.16608
456.1673	29.37647
456.3317	31.20491
456.496	31.9437
456.6603	29.14636
456.8246	30.24756
456.989	36.81321
457.1533	33.58278
457.3176	33.36442
457.4819	34.63352
457.6462	34.41887
457.8105	29.39843
457.9748	31.53766
458.1391	35.80504
458.3033	35.10563
458.4676	31.65108
458.6319	33.90366
458.7961	34.15595
458.9604	30.81307
459.1246	32.41953
459.2888	31.87097
459.4531	33.69836
459.6173	34.53084
459.7815	35.45494
459.9457	32.063
460.11	33.99578
460.2741	30.08324
460.4384	33.43009
460.6025	36.11289
460.7667	34.5349
460.9309	34.12619
461.0951	36.57439
461.2592	32.70651
461.4234	35.20056
461.5876	34.78478
461.7517	34.37772
461.9159	38.25684
462.08	34.58631
462.2441	34.18535
462.4082	36.13123
462.5724	31.03744
462.7365	32.67384
462.9006	30.70627
463.0647	35.07914
463.2288	30.79582
463.3929	34.53346
463.557	31.66833
463.721	35.24547
463.8851	35.31844
464.0492	31.20881
464.2132	30.69269
464.3773	30.78235
464.5414	31.38607
464.7054	32.74122
464.8694	34.58514
465.0334	36.79249
465.1975	30.24299
465.3615	32.91124
465.5255	27.20045
465.6895	37.9353
465.8535	33.77856
466.0175	35.81277
466.1815	37.81413
466.3455	35.09977
466.5095	31.07029
466.6734	30.82823
466.8374	29.54513
467.0014	28.73151
467.1653	36.08995
467.3293	34.75542
467.4932	35.41049
467.6571	35.40804
467.8211	35.26675
467.985	32.82691
468.1489	34.92656
468.3128	32.69743
468.4767	33.04527
468.6406	33.94086
468.8045	33.60274
468.9684	33.83615
469.1323	35.94137
469.2962	34.02993
469.46	32.87718
469.6239	32.94032
469.7878	34.67316
469.9516	37.08458
470.1154	35.29606
470.2793	35.76811
470.4431	33.87481
470.607	35.27636
470.7708	37.63753
470.9346	32.14523
471.0984	35.41552
471.2622	38.99239
471.426	32.98444
471.5898	34.51966
471.7536	36.29033
471.9174	42.13276
472.0811	37.9669
472.2449	34.9869
472.4087	34.72105
472.5724	29.24368
472.7362	32.81892
472.8999	27.98064
473.0637	32.74365
473.2274	39.70497
473.3911	35.43327
473.5548	36.66265
473.7185	38.91129
473.8822	38.40407
474.0459	34.50613
474.2096	37.76497
474.3733	32.7619
474.537	36.54278
474.7007	36.75442
474.8643	37.52541
475.028	38.6128
475.1917	36.22059
475.3553	33.31058
475.519	38.83823
475.6826	34.22049
475.8463	30.88054
476.0099	38.35597
476.1735	35.8083
476.3371	32.87723
476.5007	33.92774
476.6643	38.63816
476.8279	37.40891
476.9915	37.59137
477.1551	37.7635
477.3187	37.85825
477.4823	41.0815
477.6458	36.81412
477.8094	30.31036
477.9729	36.14761
478.1365	41.51604
478.3	37.74144
478.4636	37.78042
478.6271	35.07303
478.7906	36.22049
478.9541	38.25956
479.1176	34.98737
479.2812	36.85567
479.4447	39.76886
479.6082	36.84885
479.7716	32.99195
479.9351	34.58504
480.0986	34.91479
480.2621	38.68508
480.4255	39.63673
480.589	37.57712
480.7524	36.41404
480.9159	32.10618
481.0793	31.45381
481.2428	39.13746
481.4062	36.43121
481.5696	37.2494
481.733	36.00112
481.8964	33.27592
482.0598	39.73581
482.2232	39.33302
482.3866	33.21229
482.55	35.67661
482.7134	37.55746
482.8768	36.70205
483.0401	37.99682
483.2035	37.30786
483.3668	39.49953
483.5302	37.65361
483.6935	36.61863
483.8568	38.06297
484.0202	35.60615
484.1835	32.79644
484.3468	35.3586
484.5101	32.031
484.6734	32.41962
484.8367	37.03424
485	36.0406
485.1633	32.55591
485.3266	36.17755
485.4899	34.17752
485.6531	33.15461
485.8164	30.71888
485.9796	27.70486
486.1429	27.27797
486.3061	29.15034
486.4694	35.84531
486.6326	32.86638
486.7958	32.0617
486.959	35.72379
487.1223	34.60036
487.2855	36.45416
487.4486	35.64191
487.6118	34.27765
487.775	37.55568
487.9382	29.69903
488.1014	34.71155
488.2646	36.62903
488.4277	36.91373
488.5909	35.73954
488.754	36.92008
488.9171	34.28611
489.0803	35.9282
489.2434	34.17542
489.4066	39.70447
489.5697	40.48821
489.7328	42.36357
489.8959	38.78606
490.059	36.86188
490.2221	39.65877
490.3852	40.35175
490.5482	38.01543
490.7113	39.587
490.8744	37.73985
491.0374	37.72844
491.2005	37.46622
491.3636	41.88466
491.5266	37.57178
491.6896	35.57915
491.8527	38.32143
492.0157	38.45687
492.1787	37.71129
492.3417	35.04528
492.5047	34.07175
492.6677	41.9237
492.8307	38.29694
492.9937	44.12975
493.1567	39.46264
493.3196	38.15157
493.4826	38.39862
493.6456	37.84228
493.8085	37.94261
493.9715	39.87458
494.1344	41.48061
494.2974	39.72587
494.4603	39.06146
494.6232	41.90497
494.7861	43.27957
494.949	44.11016
495.1119	35.92033
495.2748	40.52897
495.4377	38.89609
495.6006	40.73545
495.7635	42.08985
495.9264	35.04121
496.0892	36.99342
496.2521	38.25847
496.4149	39.01783
496.5778	41.5176
496.7407	44.38166
496.9035	39.49598
497.0663	42.6095
497.2291	41.92455
497.3919	43.09744
497.5547	43.12276
497.7176	39.82478
497.8804	38.52959
498.0432	39.17043
498.2059	43.45282
498.3687	34.59553
498.5315	33.42537
498.6942	38.74667
498.857	41.94884
499.0198	41.97294
499.1825	36.04778
499.3452	39.64062
499.508	39.7491
499.6707	42.12812
499.8334	39.8577
499.9962	40.09519
500.1589	42.17546
500.3216	40.54264
500.4843	38.43074
500.6469	39.40633
500.8096	35.71487
500.9723	37.37568
501.135	40.67362
501.2976	32.87262
501.4603	37.85618
501.623	40.78485
501.7856	44.10863
501.9482	42.9895
502.1109	44.36642
502.2735	41.80535
502.4361	40.97271
502.5987	41.18834
502.7614	39.67569
502.924	40.68306
503.0865	39.97066
503.2491	45.37499
503.4117	44.7311
503.5743	42.33545
503.7368	39.70293
503.8994	41.51109
504.062	36.20854
504.2245	40.19584
504.3871	41.44934
504.5496	42.30115
504.7121	43.90155
504.8746	43.71487
505.0372	40.28788
505.1997	37.30722
505.3622	37.62277
505.5247	43.2627
505.6872	38.48812
505.8497	43.95715
506.0121	42.43696
506.1746	42.68835
506.3371	39.509
506.4995	41.7585
506.662	46.27884
506.8244	44.74435
506.9869	43.39861
507.1493	42.53511
507.3117	41.42253
507.4742	39.7345
507.6366	40.17738
507.799	42.10255
507.9614	38.44365
508.1238	46.00054
508.2862	47.02658
508.4485	48.60405
508.6109	42.72819
508.7733	42.14017
508.9357	46.80867
509.098	44.17223
509.2604	46.88335
509.4227	49.00602
509.5851	46.12396
509.7474	44.26062
509.9097	42.30775
510.072	43.71027
510.2343	47.32084
510.3966	46.71282
510.5589	47.36574
510.7212	45.03527
510.8835	45.50352
511.0458	43.10087
511.2081	48.18647
511.3703	47.47621
511.5326	47.55972
511.6949	48.22208
511.8571	52.08567
512.0193	50.39593
512.1816	50.87474
512.3438	49.93053
512.506	46.87386
512.6682	47.11787
512.8304	44.24598
512.9926	43.66643
513.1548	49.72247
513.317	41.73404
513.4792	49.13858
513.6414	48.59927
513.8035	48.72793
513.9657	45.62586
514.1279	44.89127
514.29	50.00351
514.4521	45.78634
514.6143	50.77658
514.7764	53.84199
514.9385	51.01368
515.1006	48.58671
515.2628	49.46418
515.4249	45.7269
515.587	50.91291
515.7491	47.94906
515.9111	50.07753
516.0732	48.59909
516.2353	49.20496
