SPECTRUM DATA FILE
SpectrumCount:	1
PixelCount:	3648
UserName:	ToughBook User
SampleName:	
LightSource:	
Comments:	
DeviceName:	Qwave
DeviceManufacturer:	Broadcom
DeviceSerialNo:	11311

Name:	last spectrum
Date:	2024-05-02T15:06:26.2274829+02:00
ExposureTime:	0.02
TemporalAvg:	1
IntensityUnit:	normalizedCounts
CCDLoadLevel:	0.02165431
Temperature:	28.38461
DiagramColor:	200
ProcessingSteps:	335

Wavelength [nm]	Intensity1
334.421	5.616315
334.5891	4.178598
334.7573	4.883985
334.9254	5.159675
335.0935	1.1108
335.2616	4.272065
335.4297	0.1870531
335.5978	3.328826
335.7659	3.088629
335.934	-1.765257
336.1021	5.843714
336.2701	6.652609
336.4382	6.888751
336.6063	1.814839
336.7744	2.793158
336.9424	4.301451
337.1105	-1.652766
337.2785	0.9098398
337.4466	4.233661
337.6146	3.97758
337.7827	7.169441
337.9507	2.80499
338.1187	1.949683
338.2867	2.355784
338.4548	1.958981
338.6228	3.57779
338.7908	0.5815827
338.9588	4.399878
339.1268	6.283309
339.2948	3.461576
339.4628	7.068635
339.6308	-0.7177039
339.7988	-0.2024461
339.9667	2.155605
340.1347	0.02777897
340.3027	3.508254
340.4707	0.07355226
340.6386	2.449774
340.8066	2.478887
340.9745	-1.062745
341.1425	-0.3779859
341.3104	2.860974
341.4784	-0.4464876
341.6463	0.7179832
341.8142	3.055744
341.9821	6.732814
342.1501	6.965399
342.318	5.207616
342.4859	5.555222
342.6538	4.157397
342.8217	4.375423
342.9896	4.932145
343.1575	0.6018537
343.3254	4.157536
343.4933	11.5212
343.6612	3.676512
343.829	2.95352
343.9969	1.65237
344.1648	1.340557
344.3326	6.713731
344.5005	5.053638
344.6683	1.055898
344.8362	5.166077
345.004	3.14686
345.1719	2.569416
345.3397	4.687702
345.5075	8.909447
345.6754	4.843594
345.8432	0.7962043
346.011	2.586716
346.1788	6.011256
346.3466	2.900458
346.5144	6.02217
346.6822	4.349782
346.85	0.2396161
347.0178	0.07868125
347.1856	8.261577
347.3534	3.784835
347.5211	4.077144
347.6889	2.68128
347.8567	7.351734
348.0244	9.7005
348.1922	2.536601
348.3599	3.516188
348.5277	-1.257082
348.6954	1.723541
348.8632	3.689175
349.0309	5.843623
349.1986	2.972543
349.3663	2.93136
349.5341	2.432413
349.7018	4.137186
349.8695	6.436304
350.0372	0.1926302
350.2049	4.162689
350.3726	3.589135
350.5403	3.771751
350.7079	3.248594
350.8756	0.7063563
351.0433	2.097247
351.211	7.349096
351.3786	3.368729
351.5463	3.075673
351.714	1.341461
351.8816	3.521371
352.0493	1.729051
352.2169	-1.132078
352.3846	7.136899
352.5522	4.888567
352.7198	0.9162226
352.8875	1.830057
353.0551	7.640652
353.2227	5.188996
353.3903	1.636466
353.5579	2.712505
353.7255	3.096004
353.8931	1.634841
354.0607	3.556338
354.2283	4.241688
354.3958	6.10971
354.5634	4.974001
354.731	4.733042
354.8986	6.318966
355.0661	5.330653
355.2337	4.255222
355.4012	5.110938
355.5688	6.485517
355.7363	5.093682
355.9039	4.766614
356.0714	10.31061
356.239	6.551951
356.4065	6.367166
356.574	6.071977
356.7415	4.689682
356.909	2.866757
357.0765	3.586419
357.244	2.707864
357.4115	6.284077
357.579	2.661112
357.7465	2.209528
357.914	3.10173
358.0815	6.364511
358.249	6.945302
358.4164	5.197105
358.5839	5.189574
358.7513	3.893855
358.9188	2.332596
359.0862	-0.2822257
359.2537	-0.1857184
359.4211	6.36937
359.5886	3.311612
359.756	1.018227
359.9234	0.8277235
360.0909	3.634658
360.2583	3.192776
360.4257	5.235909
360.5931	7.933206
360.7605	5.615098
360.9279	4.179417
361.0953	5.428348
361.2627	2.35727
361.4301	3.256803
361.5974	4.595428
361.7648	3.966705
361.9322	6.713095
362.0995	10.10945
362.2669	5.376921
362.4343	2.971641
362.6016	1.724135
362.769	8.16534
362.9363	5.837412
363.1036	2.176487
363.271	6.69109
363.4383	5.282979
363.6056	4.11581
363.7729	2.80337
363.9402	5.904526
364.1075	7.78844
364.2748	7.784307
364.4421	9.127164
364.6094	6.825405
364.7767	4.385164
364.944	3.569311
365.1113	4.860765
365.2786	6.64372
365.4458	6.084711
365.6131	5.722104
365.7803	4.55825
365.9476	0.4019705
366.1148	6.988095
366.2821	7.345761
366.4493	9.679777
366.6166	8.045774
366.7838	2.95768
366.951	2.680701
367.1182	3.200862
367.2855	7.745726
367.4527	4.603171
367.6199	1.175661
367.7871	7.657361
367.9543	2.656503
368.1215	4.736064
368.2886	14.5979
368.4558	8.990557
368.623	5.668899
368.7902	5.253383
368.9573	3.409783
369.1245	5.853988
369.2917	9.500125
369.4588	7.643613
369.6259	8.175454
369.7931	5.188634
369.9602	7.466458
370.1274	7.998102
370.2945	10.33652
370.4616	4.715224
370.6287	6.263297
370.7958	4.813575
370.963	3.748585
371.1301	5.13003
371.2971	3.434628
371.4643	2.981669
371.6313	-0.2784907
371.7984	4.801851
371.9655	10.60989
372.1326	7.401206
372.2997	6.024673
372.4667	7.976976
372.6338	2.873445
372.8008	6.527922
372.9679	3.90613
373.1349	9.439336
373.3019	9.820486
373.469	3.470723
373.636	7.933654
373.803	5.865673
373.9701	6.679341
374.1371	7.056654
374.3041	6.329391
374.4711	3.59844
374.6381	5.178954
374.8051	10.43898
374.9721	5.236548
375.1391	3.049616
375.3061	5.927937
375.473	3.683536
375.64	6.920438
375.8069	6.917062
375.9739	6.216784
376.1409	7.641407
376.3078	6.362512
376.4748	8.360458
376.6417	5.725953
376.8087	6.315289
376.9756	7.576601
377.1425	6.765925
377.3094	4.430994
377.4763	8.474945
377.6432	8.914697
377.8102	8.586252
377.9771	7.033484
378.144	8.619062
378.3109	5.972965
378.4777	5.780001
378.6446	1.702618
378.8115	6.118356
378.9784	7.170649
379.1452	5.315212
379.3121	9.372118
379.4789	9.378665
379.6458	6.567275
379.8127	4.606609
379.9795	5.615561
380.1463	9.399266
380.3131	5.802409
380.48	4.640937
380.6468	7.424026
380.8136	6.144809
380.9804	7.597574
381.1472	7.474154
381.314	5.651464
381.4808	8.385116
381.6476	8.460441
381.8144	7.570505
381.9812	6.254079
382.148	7.547685
382.3147	6.787415
382.4815	8.085472
382.6483	7.245453
382.815	6.800278
382.9818	6.098684
383.1485	6.735171
383.3153	6.313009
383.482	8.914053
383.6487	6.31714
383.8155	9.818201
383.9822	6.971874
384.1489	10.12059
384.3156	5.827832
384.4823	4.930943
384.649	11.15683
384.8157	7.119123
384.9824	3.119612
385.1491	10.1736
385.3158	6.921408
385.4825	6.659573
385.6491	7.231052
385.8158	8.943996
385.9825	6.190108
386.1491	6.110721
386.3157	8.059041
386.4824	5.821028
386.649	5.888619
386.8157	6.84907
386.9823	6.637965
387.1489	5.124269
387.3156	5.594757
387.4821	11.71616
387.6488	8.12639
387.8154	5.850082
387.982	2.785928
388.1486	8.879994
388.3152	2.972135
388.4818	6.976941
388.6483	8.952384
388.8149	6.123395
388.9815	0.3686066
389.148	0.3864579
389.3146	7.072675
389.4811	6.495043
389.6477	5.276347
389.8142	9.346581
389.9808	2.546667
390.1473	8.920789
390.3138	10.2426
390.4804	9.169218
390.6469	10.73929
390.8134	13.4328
390.9799	7.264822
391.1464	9.496619
391.3129	7.753504
391.4794	4.109832
391.6459	6.0513
391.8124	7.090094
391.9789	7.013624
392.1453	10.24465
392.3118	7.510073
392.4782	11.6888
392.6447	8.795966
392.8112	10.3454
392.9776	5.900983
393.144	1.391644
393.3105	4.3536
393.4769	2.046079
393.6433	8.777857
393.8098	10.4705
393.9762	9.200762
394.1426	6.009964
394.309	6.572351
394.4754	10.96852
394.6418	8.330636
394.8082	6.802793
394.9746	9.990849
395.141	11.18999
395.3073	7.756058
395.4737	8.740067
395.64	8.547771
395.8064	8.04034
395.9728	5.274946
396.1391	9.500562
396.3055	8.407207
396.4718	12.14238
396.6381	7.155785
396.8045	7.044902
396.9708	5.663009
397.1371	7.497326
397.3034	5.892137
397.4697	9.052932
397.636	12.7388
397.8023	8.005093
397.9686	10.81742
398.1349	12.80259
398.3012	10.08345
398.4675	9.873482
398.6337	9.263639
398.8	9.591535
398.9662	11.10095
399.1325	11.01698
399.2988	11.70921
399.465	10.86864
399.6313	13.75028
399.7975	9.438159
399.9637	8.338397
400.1299	5.860228
400.2961	6.641478
400.4624	7.715558
400.6286	8.586087
400.7948	12.9539
400.961	8.182107
401.1272	10.68802
401.2934	9.394527
401.4595	11.54103
401.6257	7.010145
401.7919	15.60098
401.9581	12.27197
402.1242	14.34147
402.2904	12.01472
402.4565	12.33864
402.6227	12.86994
402.7888	9.878505
402.955	12.3853
403.1211	13.64363
403.2872	13.06408
403.4533	13.4258
403.6194	9.340674
403.7856	5.459758
403.9517	11.42149
404.1177	10.8567
404.2838	9.044884
404.4499	12.70111
404.616	12.80375
404.7821	12.05916
404.9482	10.5689
405.1142	7.431493
405.2803	8.532099
405.4464	12.56334
405.6124	10.4889
405.7784	9.311687
405.9445	9.052278
406.1105	11.75824
406.2766	10.91115
406.4426	6.017448
406.6086	5.962641
406.7746	14.22052
406.9406	13.53798
407.1066	12.48965
407.2726	17.33773
407.4386	13.3735
407.6046	14.12822
407.7706	12.88945
407.9366	12.21819
408.1025	13.44601
408.2685	13.72772
408.4344	13.43362
408.6004	12.00323
408.7664	6.513065
408.9323	12.73842
409.0983	16.46796
409.2642	11.44019
409.4301	16.38724
409.596	11.39388
409.762	8.537626
409.9279	12.2914
410.0938	11.42417
410.2597	13.30509
410.4256	10.17628
410.5915	9.257415
410.7574	11.43065
410.9232	16.37376
411.0891	12.72138
411.255	11.19283
411.4209	12.43416
411.5867	13.2138
411.7526	19.27934
411.9184	18.2028
412.0843	17.02639
412.2501	13.92018
412.4159	13.25777
412.5818	11.53001
412.7476	11.62803
412.9134	8.937371
413.0792	12.28302
413.245	13.77957
413.4108	14.37854
413.5766	12.19586
413.7424	9.608152
413.9082	11.16412
414.074	13.72777
414.2397	16.34973
414.4055	12.27857
414.5713	8.686558
414.737	18.66488
414.9028	13.77021
415.0685	14.9321
415.2343	14.81515
415.4	15.13512
415.5658	12.73849
415.7315	15.53108
415.8972	14.57061
416.0629	8.092535
416.2286	13.4411
416.3943	19.00597
416.56	13.7397
416.7257	15.24889
416.8914	12.21981
417.0571	18.07747
417.2228	17.2261
417.3884	15.5648
417.5541	14.85331
417.7198	16.15935
417.8854	17.01528
418.0511	10.97703
418.2167	16.99861
418.3824	15.5697
418.548	10.10269
418.7136	14.02802
418.8792	16.82766
419.0449	13.22743
419.2105	13.55303
419.3761	16.22206
419.5417	20.74766
419.7073	17.8591
419.8729	13.82842
420.0385	16.49483
420.204	16.17124
420.3696	18.64399
420.5352	18.75593
420.7007	17.82054
420.8663	13.04086
421.0319	13.9193
421.1974	18.37332
421.3629	15.78411
421.5285	16.71851
421.694	13.41436
421.8595	16.11597
422.0251	17.59046
422.1906	14.54869
422.3561	13.93411
422.5216	17.08718
422.6871	19.12312
422.8526	18.20762
423.0181	15.52474
423.1835	18.78368
423.349	16.72397
423.5145	18.85983
423.68	18.90482
423.8454	17.02284
424.0109	15.98487
424.1763	12.19359
424.3418	19.28391
424.5072	15.09134
424.6726	14.71333
424.838	17.91045
425.0035	19.86619
425.1689	21.84202
425.3343	21.53727
425.4997	18.88164
425.6651	16.1707
425.8305	16.12735
425.9959	17.07192
426.1613	21.9523
426.3267	17.98911
426.492	17.12461
426.6574	18.70437
426.8228	15.85385
426.9881	18.0002
427.1534	21.34828
427.3188	18.24688
427.4841	17.03684
427.6495	18.52505
427.8148	21.29894
427.9801	16.25364
428.1454	22.87634
428.3107	20.99464
428.476	22.21813
428.6414	18.24714
428.8066	12.8259
428.9719	18.03387
429.1372	17.41687
429.3025	18.70794
429.4678	16.93939
429.633	16.37238
429.7983	17.02657
429.9636	12.62367
430.1288	14.44685
430.294	20.38731
430.4593	17.1382
430.6245	14.51253
430.7897	14.08829
430.955	15.93492
431.1202	13.19593
431.2854	14.89378
431.4506	17.44777
431.6158	19.62658
431.781	21.42051
431.9462	23.64467
432.1114	23.20967
432.2766	22.05239
432.4417	18.09324
432.6069	17.14523
432.772	18.8205
432.9372	24.40804
433.1024	21.38468
433.2675	22.90098
433.4326	21.70447
433.5977	21.11238
433.7629	22.32204
433.928	17.27464
434.0931	17.45959
434.2582	16.23797
434.4233	16.41735
434.5884	18.82207
434.7535	25.27128
434.9186	21.67451
435.0837	24.69717
435.2488	21.91323
435.4138	19.89818
435.5789	21.80028
435.744	23.97398
435.909	26.69236
436.0741	27.45829
436.2391	22.14235
436.4042	20.45751
436.5692	20.33468
436.7342	20.90779
436.8992	24.61015
437.0643	21.12233
437.2293	17.10517
437.3943	22.02537
437.5593	23.38835
437.7243	23.07122
437.8893	19.2471
438.0542	24.77181
438.2192	21.45542
438.3842	20.08888
438.5491	20.73889
438.7141	19.00206
438.8791	25.29503
439.044	23.1732
439.209	23.80321
439.3739	22.11152
439.5388	21.18042
439.7037	23.96712
439.8687	20.5473
440.0336	21.02266
440.1985	23.64085
440.3634	26.16894
440.5283	27.29942
440.6932	26.13948
440.8581	21.41951
441.0229	22.68318
441.1878	27.66262
441.3527	24.6637
441.5175	23.15264
441.6824	27.26473
441.8472	29.25478
442.0121	29.31953
442.1769	24.51214
442.3418	19.32161
442.5066	30.22718
442.6714	29.80158
442.8362	29.59813
443.001	27.15373
443.1659	25.02368
443.3307	25.09755
443.4955	24.47332
443.6602	23.85351
443.825	25.74291
443.9898	25.56092
444.1546	21.97839
444.3193	21.84587
444.4841	29.7824
444.6488	23.97545
444.8136	29.09432
444.9783	29.64395
445.1431	23.42569
445.3078	23.23235
445.4725	24.65375
445.6372	21.12703
445.802	24.81114
445.9667	23.21867
446.1314	25.06502
446.2961	26.03732
446.4608	24.42335
446.6255	25.98144
446.7901	21.98005
446.9548	23.91383
447.1195	24.19914
447.2841	26.73746
447.4488	24.13126
447.6134	28.04892
447.7781	25.42605
447.9427	22.6066
448.1074	22.7195
448.272	24.86882
448.4366	26.29623
448.6012	27.73162
448.7658	25.41677
448.9305	24.24222
449.095	25.44924
449.2596	26.90883
449.4242	22.5585
449.5888	23.38849
449.7534	26.29464
449.9179	28.46211
450.0825	30.43666
450.2471	29.15308
450.4116	27.51199
450.5762	27.40331
450.7407	28.38303
450.9052	31.0167
451.0698	33.71005
451.2343	29.12778
451.3988	31.53114
451.5633	29.83656
451.7278	28.14404
451.8923	32.77165
452.0568	31.24902
452.2213	24.17737
452.3858	30.94734
452.5503	28.90248
452.7148	29.11677
452.8792	29.29921
453.0437	25.65582
453.2081	27.60607
453.3726	32.71891
453.537	29.5407
453.7015	29.93426
453.8659	27.80984
454.0303	27.93006
454.1947	26.19566
454.3592	29.22626
454.5236	32.98625
454.688	35.69053
454.8524	31.802
455.0168	32.85535
455.1811	29.7285
455.3455	29.23722
455.5099	32.25479
455.6743	29.67803
455.8386	36.29625
456.003	32.02246
456.1673	28.84817
456.3317	33.50156
456.496	32.60613
456.6603	28.13161
456.8246	27.96532
456.989	33.37416
457.1533	34.208
457.3176	32.67972
457.4819	34.27414
457.6462	30.363
457.8105	29.36971
457.9748	24.88022
458.1391	32.31147
458.3033	35.07426
458.4676	27.06766
458.6319	25.95166
458.7961	29.36843
458.9604	30.98389
459.1246	30.78755
459.2888	31.36961
459.4531	30.43262
459.6173	27.84047
459.7815	28.23308
459.9457	30.74663
460.11	27.75569
460.2741	30.68781
460.4384	30.7523
460.6025	30.95798
460.7667	34.69041
460.9309	34.29278
461.0951	31.20683
461.2592	29.95088
461.4234	29.25273
461.5876	32.27376
461.7517	30.31386
461.9159	30.57775
462.08	29.18388
462.2441	32.3005
462.4082	29.61706
462.5724	33.26809
462.7365	29.34764
462.9006	30.16889
463.0647	35.04527
463.2288	30.85809
463.3929	33.44324
463.557	31.7031
463.721	30.8824
463.8851	28.11974
464.0492	33.94657
464.2132	33.30295
464.3773	33.87379
464.5414	30.83898
464.7054	29.37171
464.8694	30.53693
465.0334	31.15929
465.1975	30.89698
465.3615	33.54889
465.5255	33.99029
465.6895	34.19129
465.8535	34.32526
466.0175	28.2765
466.1815	27.29564
466.3455	28.81287
466.5095	33.18369
466.6734	28.69874
466.8374	27.86035
467.0014	31.05145
467.1653	33.71349
467.3293	30.43602
467.4932	29.34399
467.6571	29.96005
467.8211	25.079
467.985	28.70378
468.1489	29.82599
468.3128	30.82382
468.4767	30.58623
468.6406	33.70226
468.8045	32.25586
468.9684	30.4329
469.1323	28.12629
469.2962	30.50233
469.46	34.80273
469.6239	33.03732
469.7878	31.75529
469.9516	31.50549
470.1154	31.60308
470.2793	29.90343
470.4431	32.58088
470.607	26.57987
470.7708	26.98233
470.9346	29.7361
471.0984	29.6016
471.2622	27.46586
471.426	31.62992
471.5898	33.46994
471.7536	32.87912
471.9174	34.35732
472.0811	31.08619
472.2449	28.60045
472.4087	31.54701
472.5724	36.10568
472.7362	33.44444
472.8999	28.35429
473.0637	35.17492
473.2274	34.45678
473.3911	31.35954
473.5548	33.97806
473.7185	36.9394
473.8822	36.45681
474.0459	30.95657
474.2096	36.01664
474.3733	36.53958
474.537	32.81884
474.7007	34.32631
474.8643	31.35592
475.028	35.23222
475.1917	28.8494
475.3553	33.4136
475.519	34.93192
475.6826	37.69038
475.8463	34.50687
476.0099	33.75013
476.1735	29.52893
476.3371	32.41602
476.5007	31.25896
476.6643	34.76413
476.8279	32.17627
476.9915	31.99636
477.1551	34.82735
477.3187	34.32734
477.4823	39.93493
477.6458	34.38283
477.8094	35.45115
477.9729	31.14582
478.1365	34.23248
478.3	30.38933
478.4636	32.6267
478.6271	36.2157
478.7906	32.66653
478.9541	35.32798
479.1176	32.59124
479.2812	33.22032
479.4447	32.63449
479.6082	34.02182
479.7716	33.9789
479.9351	37.73285
480.0986	32.6404
480.2621	32.64497
480.4255	32.77481
480.589	35.84945
480.7524	33.70742
480.9159	35.01175
481.0793	35.38117
481.2428	32.83632
481.4062	33.24796
481.5696	31.0802
481.733	32.27848
481.8964	37.79309
482.0598	36.66848
482.2232	36.91185
482.3866	36.97643
482.55	33.40726
482.7134	35.06624
482.8768	30.37097
483.0401	30.40149
483.2035	31.7765
483.3668	33.71499
483.5302	37.82709
483.6935	31.10048
483.8568	32.81393
484.0202	30.70652
484.1835	31.52814
484.3468	37.19145
484.5101	35.75526
484.6734	30.82296
484.8367	36.64049
485	32.54877
485.1633	33.6938
485.3266	30.90107
485.4899	30.77757
485.6531	32.06557
485.8164	30.58187
485.9796	29.89291
486.1429	31.68657
486.3061	29.89938
486.4694	29.5325
486.6326	28.6059
486.7958	28.84819
486.959	32.66405
487.1223	27.93317
487.2855	27.35495
487.4486	33.03082
487.6118	33.29824
487.775	35.66074
487.9382	36.23525
488.1014	34.90936
488.2646	31.36383
488.4277	31.71488
488.5909	33.99496
488.754	37.02088
488.9171	35.98438
489.0803	32.18432
489.2434	34.05888
489.4066	32.13276
489.5697	32.84851
489.7328	32.33706
489.8959	37.61595
490.059	38.33872
490.2221	35.7767
490.3852	35.92311
490.5482	34.72137
490.7113	34.35858
490.8744	33.56152
491.0374	36.33887
491.2005	30.77413
491.3636	35.09503
491.5266	39.16005
491.6896	31.34916
491.8527	32.13078
492.0157	33.26006
492.1787	29.9881
492.3417	32.36206
492.5047	32.94423
492.6677	35.96707
492.8307	34.31459
492.9937	34.0278
493.1567	38.16038
493.3196	35.84325
493.4826	34.44442
493.6456	32.29705
493.8085	36.48341
493.9715	34.36656
494.1344	31.97238
494.2974	33.89763
494.4603	36.14712
494.6232	33.72459
494.7861	34.90565
494.949	37.13584
495.1119	37.79098
495.2748	34.00563
495.4377	34.5615
495.6006	31.79056
495.7635	33.38205
495.9264	36.79658
496.0892	39.38042
496.2521	42.37361
496.4149	34.3809
496.5778	36.46297
496.7407	34.21776
496.9035	34.57565
497.0663	41.77592
497.2291	34.58759
497.3919	35.3231
497.5547	40.06288
497.7176	36.54822
497.8804	34.0378
498.0432	37.70127
498.2059	37.29765
498.3687	33.46125
498.5315	37.8089
498.6942	37.52192
498.857	39.99047
499.0198	37.79746
499.1825	37.37225
499.3452	34.90228
499.508	33.51519
499.6707	34.84949
499.8334	35.41405
499.9962	36.92276
500.1589	36.93485
500.3216	34.36433
500.4843	39.17875
500.6469	39.58143
500.8096	39.70858
500.9723	37.47246
501.135	38.17336
501.2976	33.10438
501.4603	32.1335
501.623	37.15097
501.7856	37.78771
501.9482	38.17429
502.1109	36.29397
502.2735	35.91254
502.4361	35.9391
502.5987	36.57484
502.7614	38.4026
502.924	38.02798
503.0865	39.36998
503.2491	37.92535
503.4117	36.97312
503.5743	38.32504
503.7368	37.93736
503.8994	39.72569
504.062	38.9977
504.2245	30.95346
504.3871	32.96224
504.5496	38.63164
504.7121	38.51462
504.8746	37.06786
505.0372	39.24218
505.1997	34.06698
505.3622	36.5667
505.5247	35.42247
505.6872	38.63282
505.8497	35.13425
506.0121	40.70538
506.1746	45.01959
506.3371	44.15942
506.4995	37.49223
506.662	41.11804
506.8244	41.71478
506.9869	40.67628
507.1493	39.24155
507.3117	34.67389
507.4742	35.52179
507.6366	41.04921
507.799	40.08941
507.9614	42.14094
508.1238	41.52035
508.2862	39.38228
508.4485	38.97327
508.6109	40.23698
508.7733	35.38604
508.9357	43.5414
509.098	40.69159
509.2604	38.42715
509.4227	42.50489
509.5851	46.81977
509.7474	48.83059
509.9097	44.50735
510.072	42.84163
510.2343	40.60144
510.3966	42.1117
510.5589	39.95354
510.7212	44.68707
510.8835	43.44317
511.0458	37.57924
511.2081	42.55062
511.3703	42.83527
511.5326	42.77976
511.6949	47.51529
511.8571	47.51923
512.0193	45.98088
512.1816	37.65665
512.3438	42.36352
512.506	44.50359
512.6682	44.65216
512.8304	43.52116
512.9926	45.90167
513.1548	43.49238
513.317	40.50339
513.4792	40.1885
513.6414	45.40279
513.8035	44.16439
513.9657	42.70852
514.1279	41.48986
514.29	44.09191
514.4521	45.56501
514.6143	46.72581
514.7764	46.66278
514.9385	44.44414
515.1006	40.95353
515.2628	47.46852
515.4249	45.51406
515.587	42.67097
515.7491	40.18243
515.9111	43.21996
516.0732	44.25208
