SPECTRUM DATA FILE
SpectrumCount:	1
PixelCount:	3648
UserName:	ToughBook User
SampleName:	
LightSource:	
Comments:	
DeviceName:	Qwave
DeviceManufacturer:	Broadcom
DeviceSerialNo:	11311

Name:	last spectrum
Date:	2024-05-02T15:05:42.0478777+02:00
ExposureTime:	0.02
TemporalAvg:	1
IntensityUnit:	normalizedCounts
CCDLoadLevel:	0.5065121
Temperature:	28.49026
DiagramColor:	200
ProcessingSteps:	335

Wavelength [nm]	Intensity1
334.421	112.4425
334.5891	113.7345
334.7573	113.5292
334.9254	115.6233
335.0935	113.3564
335.2616	120.6504
335.4297	123.0433
335.5978	121.2069
335.7659	107.6514
335.934	95.63797
336.1021	93.29967
336.2701	101.8695
336.4382	104.297
336.6063	103.8123
336.7744	97.83259
336.9424	93.01163
337.1105	89.71776
337.2785	94.20323
337.4466	103.5435
337.6146	102.6728
337.7827	107.8329
337.9507	109.7961
338.1187	104.1831
338.2867	109.4283
338.4548	117.1997
338.6228	120.1086
338.7908	117.0639
338.9588	118.5976
339.1268	115.3082
339.2948	115.6167
339.4628	112.7187
339.6308	123.5809
339.7988	136.4623
339.9667	137.3122
340.1347	134.6354
340.3027	131.9034
340.4707	125.0224
340.6386	122.8369
340.8066	123.2238
340.9745	127.037
341.1425	128.9941
341.3104	127.0543
341.4784	118.2605
341.6463	129.3851
341.8142	133.319
341.9821	139.5992
342.1501	139.3423
342.318	139.3442
342.4859	138.4733
342.6538	138.4444
342.8217	144.6195
342.9896	144.5832
343.1575	147.2809
343.3254	146.7699
343.4933	139.5071
343.6612	139.7416
343.829	127.91
343.9969	111.5627
344.1648	102.0168
344.3326	102.7932
344.5005	106.9789
344.6683	118.5104
344.8362	134.0806
345.004	140.4239
345.1719	142.7239
345.3397	146.629
345.5075	148.5484
345.6754	144.3014
345.8432	130.5342
346.011	131.6326
346.1788	129.4246
346.3466	132.3992
346.5144	143.9576
346.6822	149.4651
346.85	150.4306
347.0178	145.6458
347.1856	144.2428
347.3534	135.4341
347.5211	127.126
347.6889	134.8856
347.8567	142.0958
348.0244	146.0905
348.1922	143.973
348.3599	150.0146
348.5277	145.7029
348.6954	141.9516
348.8632	144.7146
349.0309	139.2027
349.1986	136.3709
349.3663	141.1821
349.5341	141.612
349.7018	151.5396
349.8695	154.5503
350.0372	172.108
350.2049	182.1746
350.3726	186.4135
350.5403	184.0229
350.7079	181.561
350.8756	174.9357
351.0433	174.5086
351.211	168.8065
351.3786	165.7803
351.5463	164.5003
351.714	174.0648
351.8816	180.5807
352.0493	183.1369
352.2169	162.9572
352.3846	146.5689
352.5522	142.7667
352.7198	155.5206
352.8875	166.4708
353.0551	184.0565
353.2227	190.913
353.3903	198.4696
353.5579	198.7253
353.7255	194.1825
353.8931	203.5999
354.0607	206.9628
354.2283	206.3338
354.3958	209.4848
354.5634	210.4213
354.731	222.3834
354.8986	219.4399
355.0661	212.1927
355.2337	192.3495
355.4012	194.1681
355.5688	196.8806
355.7363	192.8798
355.9039	192.4042
356.0714	193.5292
356.239	194.3501
356.4065	186.7062
356.574	164.7482
356.7415	155.3194
356.909	151.7628
357.0765	149.1962
357.244	157.2004
357.4115	166.8473
357.579	172.467
357.7465	167.4055
357.914	154.5015
358.0815	140.4054
358.249	128.3337
358.4164	128.5682
358.5839	131.5516
358.7513	146.5404
358.9188	160.9302
359.0862	182.3522
359.2537	199.3028
359.4211	222.7876
359.5886	227.9068
359.756	236.5215
359.9234	242.3752
360.0909	243.169
360.2583	230.1112
360.4257	212.1068
360.5931	196.8589
360.7605	193.665
360.9279	186.7465
361.0953	187.2141
361.2627	195.1017
361.4301	202.8357
361.5974	204.6019
361.7648	195.1573
361.9322	184.7614
362.0995	198.9517
362.2669	210.6285
362.4343	239.2722
362.6016	255.3381
362.769	261.3911
362.9363	255.9973
363.1036	225.5114
363.271	205.2287
363.4383	205.8891
363.6056	222.3772
363.7729	232.9588
363.9402	255.3384
364.1075	267.758
364.2748	251.3647
364.4421	242.4177
364.6094	234.5978
364.7767	217.8852
364.944	223.4471
365.1113	250.7084
365.2786	261.4251
365.4458	275.7847
365.6131	296.0089
365.7803	297.0984
365.9476	302.9551
366.1148	300.5977
366.2821	300.2918
366.4493	299.9517
366.6166	288.9411
366.7838	290.1328
366.951	287.268
367.1182	290.4153
367.2855	299.2283
367.4527	304.9595
367.6199	291.5209
367.7871	285.4975
367.9543	270.0418
368.1215	263.9062
368.2886	278.699
368.4558	281.7046
368.623	267.5842
368.7902	273.7529
368.9573	286.4342
369.1245	311.4254
369.2917	324.2908
369.4588	328.7194
369.6259	324.7422
369.7931	332.7788
369.9602	351.0865
370.1274	345.4037
370.2945	320.9973
370.4616	291.4641
370.6287	266.6596
370.7958	260.7963
370.963	280.959
371.1301	324.9989
371.2971	360.4284
371.4643	380.6298
371.6313	374.1744
371.7984	336.5494
371.9655	286.9561
372.1326	256.0724
372.2997	266.3162
372.4667	303.4839
372.6338	326.6639
372.8008	328.1982
372.9679	322.8236
373.1349	306.1083
373.3019	274.9666
373.469	237.1522
373.636	214.8495
373.803	242.0525
373.9701	285.5439
374.1371	314.9287
374.3041	318.4117
374.4711	282.4993
374.6381	245.5343
374.8051	225.5294
374.9721	235.6908
375.1391	272.3618
375.3061	321.9849
375.473	370.2253
375.64	374.8066
375.8069	343.8893
375.9739	324.9673
376.1409	319.1587
376.3078	329.1908
376.4748	324.8312
376.6417	322.9889
376.8087	334.7811
376.9756	339.2873
377.1425	358.2523
377.3094	384.1519
377.4763	411.3622
377.6432	407.2404
377.8102	425.323
377.9771	444.1299
378.144	452.2497
378.3109	458.9259
378.4777	450.7497
378.6446	409.7353
378.8115	384.4311
378.9784	365.1174
379.1452	369.2272
379.3121	360.8052
379.4789	344.6589
379.6458	329.3181
379.8127	327.1079
379.9795	339.9239
380.1463	369.8769
380.3131	414.6866
380.48	441.5335
380.6468	433.0016
380.8136	434.6556
380.9804	440.4628
381.1472	446.9396
381.314	417.1613
381.4808	376.6215
381.6476	350.9929
381.8144	344.902
381.9812	333.223
382.148	320.6853
382.3147	309.5884
382.4815	294.0389
382.6483	264.769
382.815	252.5742
382.9818	263.4334
383.1485	261.8943
383.3153	259.3537
383.482	251.1723
383.6487	254.1339
383.8155	260.4618
383.9822	259.7419
384.1489	288.4373
384.3156	346.6027
384.4823	395.1011
384.649	415.5078
384.8157	426.0841
384.9824	412.2348
385.1491	415.6172
385.3158	408.2719
385.4825	401.1999
385.6491	368.0947
385.8158	343.2061
385.9825	328.3905
386.1491	351.7578
386.3157	395.702
386.4824	430.1368
386.649	434.6212
386.8157	416.6462
386.9823	392.5895
387.1489	364.3753
387.3156	365.3994
387.4821	404.2279
387.6488	426.8674
387.8154	409.9363
387.982	389.4153
388.1486	379.2046
388.3152	386.7813
388.4818	394.8135
388.6483	388.1804
388.8149	372.9198
388.9815	380.9726
389.148	430.1173
389.3146	467.7003
389.4811	494.9916
389.6477	497.059
389.8142	498.9761
389.9808	511.2692
390.1473	507.189
390.3138	484.8452
390.4804	470.6678
390.6469	468.1266
390.8134	498.253
390.9799	535.8082
391.1464	576.0309
391.3129	588.194
391.4794	572.7583
391.6459	566.089
391.8124	551.1313
391.9789	514.4807
392.1453	492.9674
392.3118	474.2195
392.4782	467.5719
392.6447	436.6492
392.8112	381.1819
392.9776	309.0076
393.144	239.2558
393.3105	192.5075
393.4769	185.1671
393.6433	209.3351
393.8098	275.0195
393.9762	347.8608
394.1426	413.9339
394.309	432.2503
394.4754	460.0313
394.6418	503.298
394.8082	555.8226
394.9746	585.9289
395.141	604.46
395.3073	615.5869
395.4737	617.4902
395.64	603.2037
395.8064	607.3432
395.9728	588.0854
396.1391	530.7847
396.3055	443.075
396.4718	373.5523
396.6381	306.8803
396.8045	242.6404
396.9708	225.2128
397.1371	269.8316
397.3034	350.6732
397.4697	442.9377
397.636	516.6949
397.8023	600.727
397.9686	674.5747
398.1349	713.5821
398.3012	716.5649
398.4675	717.9882
398.6337	719.8225
398.8	749.5168
398.9662	781.8586
399.1325	796.3854
399.2988	802.9428
399.465	800.0328
399.6313	796.2731
399.7975	782.6563
399.9637	802.6955
400.1299	832.779
400.2961	841.4695
400.4624	806.6843
400.6286	770.0162
400.7948	785.1208
400.961	818.2994
401.1272	856.3261
401.2934	865.5938
401.4595	885.4473
401.6257	876.5766
401.7919	875.0078
401.9581	885.0373
402.1242	897.0685
402.2904	904.8309
402.4565	897.2762
402.6227	911.5843
402.7888	910.5558
402.955	890.9748
403.1211	838.2423
403.2872	795.4739
403.4533	793.7026
403.6194	851.9075
403.7856	932.9595
403.9517	958.0832
404.1177	948.136
404.2838	907.0614
404.4499	842.8648
404.616	786.9525
404.7821	796.1397
404.9482	867.1812
405.1142	945.8539
405.2803	958.7126
405.4464	930.4576
405.6124	891.7104
405.7784	885.1283
405.9445	871.9223
406.1105	884.0753
406.2766	866.6985
406.4426	835.165
406.6086	845.3386
406.7746	896.873
406.9406	939.454
407.1066	937.5982
407.2726	940.8201
407.4386	945.6858
407.6046	908.6405
407.7706	890.4188
407.9366	907.4568
408.1025	964.6113
408.2685	1007.159
408.4344	1013.59
408.6004	1008.474
408.7664	1040.326
408.9323	1086.14
409.0983	1108.392
409.2642	1077.671
409.4301	1045.7
409.596	1006.498
409.762	965.7545
409.9279	919.1772
410.0938	851.7862
410.2597	792.8832
410.4256	830.4016
410.5915	923.8402
410.7574	1000.979
410.9232	1034.852
411.0891	1040.913
411.255	1050.73
411.4209	1087.257
411.5867	1116.789
411.7526	1127.414
411.9184	1104.589
412.0843	1083.078
412.2501	1086.527
412.4159	1081.472
412.5818	1089.042
412.7476	1080.239
412.9134	1069.128
413.0792	1044.454
413.245	1003.307
413.4108	1003.332
413.5766	1040.387
413.7424	1117.964
413.9082	1164.983
414.074	1144.292
414.2397	1099.7
414.4055	1035.012
414.5713	1039.137
414.737	1081.042
414.9028	1114.939
415.0685	1118.16
415.2343	1101.432
415.4	1075.371
415.5658	1065.042
415.7315	1056.284
415.8972	1073.65
416.0629	1136.697
416.2286	1184.692
416.3943	1205.156
416.56	1193.729
416.7257	1160.996
416.8914	1152.046
417.0571	1115.754
417.2228	1076.235
417.3884	1058.603
417.5541	1061.953
417.7198	1084.93
417.8854	1107.367
418.0511	1125.391
418.2167	1128.482
418.3824	1130.188
418.548	1138.717
418.7136	1121.787
418.8792	1110.745
419.0449	1142.344
419.2105	1209.628
419.3761	1246.766
419.5417	1221.02
419.7073	1155.274
419.8729	1090.346
420.0385	1085.822
420.204	1097.593
420.3696	1139.79
420.5352	1195.692
420.7007	1265.479
420.8663	1285.239
421.0319	1300.364
421.1974	1315.514
421.3629	1319.256
421.5285	1277.146
421.694	1232.744
421.8595	1250.488
422.0251	1286.341
422.1906	1317.422
422.3561	1285.302
422.5216	1146.431
422.6871	1014.687
422.8526	1034.521
423.0181	1159.61
423.1835	1282.163
423.349	1294.926
423.5145	1245.366
423.68	1198.483
423.8454	1189.984
424.0109	1218.342
424.1763	1272.87
424.3418	1296.874
424.5072	1327.484
424.6726	1305.848
424.838	1245.031
425.0035	1177.477
425.1689	1196.767
425.3343	1231.147
425.4997	1240.462
425.6651	1255.189
425.8305	1245.572
425.9959	1198.165
426.1613	1164.281
426.3267	1227.651
426.492	1325.457
426.6574	1359.552
426.8228	1299.293
426.9881	1220.882
427.1534	1126.837
427.3188	1066.351
427.4841	1095.463
427.6495	1189.366
427.8148	1257.424
427.9801	1289.102
428.1454	1265.878
428.3107	1255.758
428.476	1237.853
428.6414	1218.64
428.8066	1184.601
428.9719	1135.046
429.1372	1132.198
429.3025	1160.667
429.4678	1198.484
429.633	1176.562
429.7983	1071.571
429.9636	971.8633
430.1288	887.6559
430.294	879.2214
430.4593	899.6793
430.6245	900.6953
430.7897	887.0265
430.955	859.7962
431.1202	874.9321
431.2854	978.5623
431.4506	1143.034
431.6158	1338.251
431.781	1486.782
431.9462	1544.404
432.1114	1505.614
432.2766	1409.285
432.4417	1237.9
432.6069	1126.995
432.772	1186.291
432.9372	1359.751
433.1024	1485.145
433.2675	1519.751
433.4326	1511.458
433.5977	1484.609
433.7629	1358.713
433.928	1193.224
434.0931	1069.204
434.2582	1122.618
434.4233	1243.517
434.5884	1390.487
434.7535	1462.395
434.9186	1509.537
435.0837	1465.622
435.2488	1407.961
435.4138	1387.428
435.5789	1426.167
435.744	1513.524
435.909	1514.488
436.0741	1550.865
436.2391	1591.593
436.4042	1634.433
436.5692	1648.712
436.7342	1615.809
436.8992	1586.895
437.0643	1554.533
437.2293	1545.421
437.3943	1492.064
437.5593	1436.138
437.7243	1466.068
437.8893	1523.762
438.0542	1545.554
438.2192	1443.552
438.3842	1281.421
438.5491	1217.706
438.7141	1298.189
438.8791	1417.113
439.044	1468.076
439.209	1485.621
439.3739	1503.051
439.5388	1536.938
439.7037	1577.324
439.8687	1596.879
440.0336	1596.463
440.1985	1545.269
440.3634	1482.597
440.5283	1437.514
440.6932	1447.899
440.8581	1501.33
441.0229	1601.419
441.1878	1662.554
441.3527	1684.083
441.5175	1620.161
441.6824	1595.925
441.8472	1637.466
442.0121	1727.119
442.1769	1746.606
442.3418	1700.333
442.5066	1661.359
442.6714	1683.36
442.8362	1721.427
443.001	1719.021
443.1659	1721.079
443.3307	1684.695
443.4955	1645.412
443.6602	1634.624
443.825	1693.82
443.9898	1762.892
444.1546	1742.034
444.3193	1686.57
444.4841	1701.208
444.6488	1757.831
444.8136	1788.901
444.9783	1784.916
445.1431	1791.373
445.3078	1757.268
445.4725	1661.28
445.6372	1594.172
445.802	1570.018
445.9667	1592.674
446.1314	1598.611
446.2961	1640.243
446.4608	1715.864
446.6255	1763.146
446.7901	1771.004
446.9548	1757.373
447.1195	1760.55
447.2841	1812.527
447.4488	1885.552
447.6134	1923.433
447.7781	1928.847
447.9427	1880.151
448.1074	1815.431
448.272	1775.251
448.4366	1817.004
448.6012	1906.677
448.7658	1940.291
448.9305	1887.606
449.095	1849.32
449.2596	1855.633
449.4242	1884.248
449.5888	1882.931
449.7534	1894.846
449.9179	1925.731
450.0825	1969.818
450.2471	1995.916
450.4116	2042.119
450.5762	2093.456
450.7407	2110.369
450.9052	2095.753
451.0698	2096.797
451.2343	2069.11
451.3988	2036.736
451.5633	2012.131
451.7278	1987.079
451.8923	1989.877
452.0568	2023.753
452.2213	2034.648
452.3858	2008.332
452.5503	1927.553
452.7148	1853.735
452.8792	1792.875
453.0437	1792.635
453.2081	1813.177
453.3726	1830.948
453.537	1850.396
453.7015	1891.277
453.8659	1968.641
454.0303	2033.988
454.1947	2036.571
454.3592	2023.004
454.5236	1990.968
454.688	1964.575
454.8524	1924.97
455.0168	1902.49
455.1811	1912.334
455.3455	1907.718
455.5099	1924.558
455.6743	1950.479
455.8386	1997.523
456.003	2051.619
456.1673	2098.971
456.3317	2058.874
456.496	2010.086
456.6603	1980.958
456.8246	2016.832
456.989	2058.359
457.1533	2029.892
457.3176	2034.249
457.4819	2058.301
457.6462	2093.552
457.8105	2090.859
457.9748	2037.559
458.1391	1952.866
458.3033	1911.917
458.4676	1893.409
458.6319	1916.446
458.7961	1978.378
458.9604	2017.959
459.1246	2010.425
459.2888	1976.957
459.4531	1988.687
459.6173	1967.968
459.7815	1966.191
459.9457	1973.241
460.11	1967.591
460.2741	1991.037
460.4384	1993.193
460.6025	2002.618
460.7667	2056.477
460.9309	2098.421
461.0951	2093.569
461.2592	2080.433
461.4234	2054.599
461.5876	2067.702
461.7517	2067.589
461.9159	2060.779
462.08	2081.587
462.2441	2097.735
462.4082	2115.784
462.5724	2106.102
462.7365	2103.827
462.9006	2107.026
463.0647	2123.934
463.2288	2115.115
463.3929	2106.635
463.557	2097.848
463.721	2060.513
463.8851	2042.378
464.0492	2052.012
464.2132	2071.978
464.3773	2093.074
464.5414	2046.766
464.7054	1989.342
464.8694	1982.038
465.0334	2012.846
465.1975	2074.744
465.3615	2108.216
465.5255	2081.153
465.6895	2070.911
465.8535	2114.665
466.0175	2172.659
466.1815	2190.567
466.3455	2146.492
466.5095	2094.823
466.6734	1998.457
466.8374	1941.496
467.0014	1957.463
467.1653	2041.405
467.3293	2118.517
467.4932	2163.579
467.6571	2171.044
467.8211	2154.203
467.985	2131.273
468.1489	2090.147
468.3128	2098.979
468.4767	2145.177
468.6406	2182.971
468.8045	2198.982
468.9684	2178.225
469.1323	2161.14
469.2962	2146.911
469.46	2164.127
469.6239	2219.663
469.7878	2195.125
469.9516	2127.666
470.1154	2063.034
470.2793	2037.51
470.4431	2034.109
470.607	2050.092
470.7708	2085.765
470.9346	2070.84
471.0984	2096.221
471.2622	2133.202
471.426	2158.97
471.5898	2159.98
471.7536	2187.658
471.9174	2249.782
472.0811	2279.885
472.2449	2277.733
472.4087	2280.872
472.5724	2260.947
472.7362	2203.577
472.8999	2136.595
473.0637	2092.582
473.2274	2103.54
473.3911	2150.4
473.5548	2151.501
473.7185	2138.609
473.8822	2148.991
474.0459	2167.053
474.2096	2213.102
474.3733	2229.787
474.537	2229.532
474.7007	2245.458
474.8643	2240.109
475.028	2238.25
475.1917	2219.736
475.3553	2176.084
475.519	2129.593
475.6826	2130.22
475.8463	2143.117
476.0099	2174.016
476.1735	2176.79
476.3371	2129.677
476.5007	2075.551
476.6643	2047.456
476.8279	2091.336
476.9915	2147.31
477.1551	2175.683
477.3187	2188.245
477.4823	2228.64
477.6458	2254.709
477.8094	2252.767
477.9729	2270.422
478.1365	2263.155
478.3	2216.691
478.4636	2180.295
478.6271	2160.618
478.7906	2134.308
478.9541	2135.461
479.1176	2166.758
479.2812	2209.941
479.4447	2254.028
479.6082	2274.752
479.7716	2246.629
479.9351	2222.669
480.0986	2191.534
480.2621	2185.01
480.4255	2190.609
480.589	2209.236
480.7524	2188.413
480.9159	2175.901
481.0793	2196.766
481.2428	2189.93
481.4062	2212.641
481.5696	2247.997
481.733	2261.424
481.8964	2290.439
482.0598	2279.521
482.2232	2240.688
482.3866	2199.645
482.55	2194.374
482.7134	2205.862
482.8768	2241.923
483.0401	2216.91
483.2035	2202.614
483.3668	2210.722
483.5302	2215.966
483.6935	2226.602
483.8568	2194.009
484.0202	2160.395
484.1835	2144.88
484.3468	2151.391
484.5101	2179.942
484.6734	2209.104
484.8367	2196.422
485	2189.162
485.1633	2192.746
485.3266	2156.412
485.4899	2085.114
485.6531	2016.717
485.8164	1939.36
485.9796	1792.732
486.1429	1612.788
486.3061	1563.325
486.4694	1685.103
486.6326	1874.012
486.7958	2014.058
486.959	2029.087
487.1223	2005.978
487.2855	1962.991
487.4486	1985.14
487.6118	2077.767
487.775	2131.604
487.9382	2152.669
488.1014	2187.104
488.2646	2192.771
488.4277	2170.075
488.5909	2138.409
488.754	2084.308
488.9171	2022.411
489.0803	1995.468
489.2434	1994.093
489.4066	2088.744
489.5697	2210.678
489.7328	2289.348
489.8959	2301.113
490.059	2268.277
490.2221	2224.964
490.3852	2199.081
490.5482	2196.776
490.7113	2229.299
490.8744	2207.33
491.0374	2125.573
491.2005	2084.213
491.3636	2124.479
491.5266	2183.027
491.6896	2170.357
491.8527	2066.448
492.0157	1951.803
492.1787	1901.744
492.3417	1957.413
492.5047	2049.627
492.6677	2144.819
492.8307	2190.676
492.9937	2218.778
493.1567	2222.273
493.3196	2185.492
493.4826	2138.25
493.6456	2102.086
493.8085	2066.977
493.9715	2065.909
494.1344	2103
494.2974	2183.675
494.4603	2233.816
494.6232	2234.839
494.7861	2253.77
494.949	2248.719
495.1119	2261.493
495.2748	2258.907
495.4377	2217.711
495.6006	2159.292
495.7635	2064.96
495.9264	2055.678
496.0892	2144.627
496.2521	2245.531
496.4149	2272.408
496.5778	2238.247
496.7407	2199.849
496.9035	2170.137
497.0663	2168.466
497.2291	2205.833
497.3919	2239.868
497.5547	2274.738
497.7176	2257.504
497.8804	2206.729
498.0432	2164.61
498.2059	2077.688
498.3687	2000.577
498.5315	1981.51
498.6942	2060.065
498.857	2174.393
499.0198	2216.426
499.1825	2219.723
499.3452	2191.587
499.508	2192.376
499.6707	2214.538
499.8334	2214.431
499.9962	2171.84
500.1589	2128.753
500.3216	2105.862
500.4843	2082.458
500.6469	2042.745
500.8096	2065.977
500.9723	2114.909
501.135	2158.765
501.2976	2118.184
501.4603	2056.481
501.623	2032.089
501.7856	2040.358
501.9482	2066.453
502.1109	2100.957
502.2735	2125.787
502.4361	2150.107
502.5987	2159.172
502.7614	2169.374
502.924	2166.081
503.0865	2209.849
503.2491	2261.046
503.4117	2279.538
503.5743	2240.668
503.7368	2175.581
503.8994	2113.575
504.062	2037.886
504.2245	2005.532
504.3871	2093.34
504.5496	2208.958
504.7121	2279.807
504.8746	2252.375
505.0372	2181.698
505.1997	2159.013
505.3622	2186.536
505.5247	2230.292
505.6872	2277.066
505.8497	2298.361
506.0121	2326.414
506.1746	2349.394
506.3371	2319.072
506.4995	2277.353
506.662	2214.703
506.8244	2200.163
506.9869	2208.331
507.1493	2228.231
507.3117	2221.488
507.4742	2210.316
507.6366	2210.383
507.799	2167.774
507.9614	2124.645
508.1238	2081.27
508.2862	2069.191
508.4485	2110.621
508.6109	2201.862
508.7733	2221.564
508.9357	2218.339
509.098	2229.369
509.2604	2260.048
509.4227	2262.246
509.5851	2246.767
509.7474	2177.092
509.9097	2103.073
510.072	2095.893
510.2343	2141.485
510.3966	2192.459
510.5589	2194.251
510.7212	2140.921
510.8835	2117.43
511.0458	2104.384
511.2081	2147.448
511.3703	2192.42
511.5326	2199.445
511.6949	2225.389
511.8571	2248.087
512.0193	2231.656
512.1816	2189.487
512.3438	2129.031
512.506	2062.274
512.6682	2041.333
512.8304	2055.003
512.9926	2081.595
513.1548	2084.318
513.317	2087.057
513.4792	2090.079
513.6414	2080.004
513.8035	2043.662
513.9657	1996.407
514.1279	1967.803
514.29	1977.43
514.4521	2004.696
514.6143	2013.918
514.7764	2010.148
514.9385	2011.096
515.1006	2045.261
515.2628	2055.232
515.4249	2032.31
515.587	2040.16
515.7491	2063.437
515.9111	2092.313
516.0732	2095.298
516.2353	2058.999
