SPECTRUM DATA FILE
SpectrumCount:	1
PixelCount:	3648
UserName:	ToughBook User
SampleName:	
LightSource:	
Comments:	
DeviceName:	Qwave
DeviceManufacturer:	Broadcom
DeviceSerialNo:	11311

Name:	last spectrum
Date:	2024-05-02T15:06:58.7281426+02:00
ExposureTime:	0.02
TemporalAvg:	1
IntensityUnit:	normalizedCounts
CCDLoadLevel:	0.02011499
Temperature:	28.27905
DiagramColor:	200
ProcessingSteps:	335

Wavelength [nm]	Intensity1
334.421	5.622071
334.5891	3.628338
334.7573	5.199306
334.9254	3.167452
335.0935	2.946414
335.2616	3.977019
335.4297	0.2351468
335.5978	2.38224
335.7659	9.787413
335.934	7.169558
336.1021	2.215374
336.2701	4.867096
336.4382	5.755319
336.6063	4.666331
336.7744	3.717806
336.9424	6.026474
337.1105	7.197667
337.2785	8.661686
337.4466	1.675812
337.6146	5.881253
337.7827	7.180252
337.9507	6.726698
338.1187	8.372748
338.2867	4.450326
338.4548	7.19979
338.6228	5.573518
338.7908	3.571097
338.9588	6.718819
339.1268	4.918318
339.2948	7.164671
339.4628	6.78934
339.6308	2.228023
339.7988	5.380414
339.9667	3.987877
340.1347	7.782663
340.3027	4.395715
340.4707	1.658884
340.6386	1.542564
340.8066	0.8351784
340.9745	3.087326
341.1425	8.00694
341.3104	6.392559
341.4784	3.035128
341.6463	5.080194
341.8142	9.140049
341.9821	4.83118
342.1501	0.9940243
342.318	6.978118
342.4859	7.338129
342.6538	4.815607
342.8217	5.828276
342.9896	3.887725
343.1575	3.886142
343.3254	3.266034
343.4933	2.80151
343.6612	2.98641
343.829	4.426802
343.9969	2.567843
344.1648	2.34269
344.3326	6.028698
344.5005	4.328135
344.6683	3.596911
344.8362	6.918487
345.004	11.16675
345.1719	6.196068
345.3397	5.237112
345.5075	8.417399
345.6754	0.9362906
345.8432	-0.6504015
346.011	3.193252
346.1788	1.024503
346.3466	7.296481
346.5144	4.713861
346.6822	4.488705
346.85	3.332617
347.0178	3.589617
347.1856	6.449166
347.3534	9.350911
347.5211	6.736938
347.6889	4.799486
347.8567	3.209788
348.0244	2.398309
348.1922	1.862805
348.3599	7.226252
348.5277	5.911237
348.6954	4.834343
348.8632	3.91392
349.0309	3.266232
349.1986	1.921655
349.3663	4.895412
349.5341	2.48379
349.7018	3.048831
349.8695	4.025462
350.0372	6.347836
350.2049	1.59667
350.3726	5.052447
350.5403	5.66876
350.7079	4.017526
350.8756	7.37731
351.0433	6.404939
351.211	2.569606
351.3786	7.521736
351.5463	7.552001
351.714	5.435428
351.8816	5.628374
352.0493	6.72611
352.2169	8.627161
352.3846	4.180669
352.5522	1.723779
352.7198	3.620811
352.8875	7.588433
353.0551	4.545772
353.2227	3.270297
353.3903	2.567744
353.5579	2.612043
353.7255	8.263128
353.8931	6.10246
354.0607	7.916428
354.2283	6.409298
354.3958	3.179451
354.5634	4.943986
354.731	2.196978
354.8986	6.227252
355.0661	5.532304
355.2337	4.353936
355.4012	1.293308
355.5688	6.379227
355.7363	2.363893
355.9039	2.911801
356.0714	2.895561
356.239	4.319972
356.4065	4.713399
356.574	7.115974
356.7415	3.361195
356.909	5.5076
357.0765	4.918622
357.244	6.604678
357.4115	7.845928
357.579	6.723945
357.7465	7.36524
357.914	1.858532
358.0815	4.014417
358.249	4.870266
358.4164	4.325427
358.5839	6.288157
358.7513	4.135392
358.9188	5.168778
359.0862	-3.031595
359.2537	5.925822
359.4211	5.365038
359.5886	1.629651
359.756	5.302258
359.9234	6.843081
360.0909	3.213475
360.2583	2.376669
360.4257	3.210912
360.5931	4.623795
360.7605	2.9731
360.9279	3.285586
361.0953	9.994769
361.2627	8.15743
361.4301	3.835194
361.5974	3.111049
361.7648	0.05966902
361.9322	3.227245
362.0995	7.492101
362.2669	4.994341
362.4343	1.57392
362.6016	5.65132
362.769	3.863922
362.9363	1.507909
363.1036	4.550946
363.271	4.461648
363.4383	1.339535
363.6056	4.909309
363.7729	5.702178
363.9402	8.117927
364.1075	10.99756
364.2748	4.737222
364.4421	6.402788
364.6094	6.205296
364.7767	5.362389
364.944	6.460501
365.1113	5.470973
365.2786	10.83305
365.4458	8.327476
365.6131	4.419252
365.7803	8.899567
365.9476	3.391949
366.1148	2.559305
366.2821	4.544588
366.4493	9.550449
366.6166	8.35878
366.7838	4.665878
366.951	6.76264
367.1182	6.138326
367.2855	10.23238
367.4527	9.349111
367.6199	7.025997
367.7871	8.837941
367.9543	5.93407
368.1215	5.994826
368.2886	6.892657
368.4558	5.220464
368.623	8.664034
368.7902	7.133476
368.9573	7.00273
369.1245	6.622705
369.2917	3.8871
369.4588	7.00259
369.6259	6.582555
369.7931	6.47958
369.9602	6.379746
370.1274	6.406652
370.2945	6.126641
370.4616	2.660779
370.6287	6.249626
370.7958	4.962912
370.963	8.73325
371.1301	10.79485
371.2971	3.850507
371.4643	8.05639
371.6313	7.943312
371.7984	7.863862
371.9655	4.272086
372.1326	6.245854
372.2997	8.358057
372.4667	6.157732
372.6338	2.433507
372.8008	6.761081
372.9679	4.513445
373.1349	5.939266
373.3019	10.62533
373.469	3.225646
373.636	6.683651
373.803	5.803421
373.9701	2.939658
374.1371	6.951464
374.3041	5.738392
374.4711	7.076357
374.6381	5.782497
374.8051	5.294185
374.9721	4.556441
375.1391	8.566339
375.3061	8.408598
375.473	7.86312
375.64	4.493789
375.8069	11.76195
375.9739	8.28459
376.1409	6.230177
376.3078	11.05288
376.4748	5.952254
376.6417	8.456885
376.8087	5.980053
376.9756	9.221212
377.1425	4.460949
377.3094	4.187059
377.4763	5.501256
377.6432	5.564716
377.8102	4.47464
377.9771	7.195319
378.144	9.322519
378.3109	8.392362
378.4777	8.703287
378.6446	8.785071
378.8115	6.462374
378.9784	6.262143
379.1452	6.8513
379.3121	8.671414
379.4789	7.002211
379.6458	6.449374
379.8127	8.467937
379.9795	9.812509
380.1463	7.482702
380.3131	7.620067
380.48	7.487135
380.6468	6.932969
380.8136	9.371382
380.9804	6.756985
381.1472	7.021182
381.314	5.934017
381.4808	5.764443
381.6476	8.415211
381.8144	5.922476
381.9812	7.309552
382.148	5.190922
382.3147	7.672513
382.4815	6.512452
382.6483	7.000195
382.815	8.888947
382.9818	8.661894
383.1485	6.899462
383.3153	10.28073
383.482	9.983464
383.6487	11.38001
383.8155	6.403386
383.9822	5.629615
384.1489	13.72127
384.3156	6.826507
384.4823	10.65577
384.649	9.170226
384.8157	3.985396
384.9824	3.571224
385.1491	8.255025
385.3158	7.095236
385.4825	8.918031
385.6491	10.03
385.8158	7.723999
385.9825	5.030818
386.1491	6.126814
386.3157	1.73691
386.4824	5.451777
386.649	6.76827
386.8157	8.228011
386.9823	9.659938
387.1489	6.383505
387.3156	5.790774
387.4821	10.94831
387.6488	11.15174
387.8154	8.203192
387.982	3.803904
388.1486	7.809975
388.3152	8.042463
388.4818	7.895364
388.6483	6.253099
388.8149	9.436569
388.9815	9.043309
389.148	9.671997
389.3146	2.814595
389.4811	8.294718
389.6477	6.140673
389.8142	10.65708
389.9808	12.67119
390.1473	14.69971
390.3138	11.02416
390.4804	7.586992
390.6469	5.930455
390.8134	4.840929
390.9799	10.21283
391.1464	8.653496
391.3129	7.532229
391.4794	10.55914
391.6459	8.824873
391.8124	3.423345
391.9789	6.526742
392.1453	10.44195
392.3118	8.978322
392.4782	9.337041
392.6447	9.867697
392.8112	7.46498
392.9776	5.199328
393.144	6.870119
393.3105	1.911966
393.4769	5.280615
393.6433	7.509416
393.8098	4.680226
393.9762	9.090585
394.1426	5.68653
394.309	14.4358
394.4754	11.78043
394.6418	8.21807
394.8082	6.788692
394.9746	10.78714
395.141	6.464804
395.3073	8.02742
395.4737	10.19394
395.64	12.70015
395.8064	9.748839
395.9728	9.749647
396.1391	7.641047
396.3055	6.295825
396.4718	12.34339
396.6381	7.626415
396.8045	4.232859
396.9708	9.543333
397.1371	7.627747
397.3034	4.630595
397.4697	7.773673
397.636	14.04004
397.8023	8.402046
397.9686	10.69279
398.1349	11.63506
398.3012	10.74967
398.4675	13.33335
398.6337	15.72908
398.8	10.53553
398.9662	10.75485
399.1325	13.48784
399.2988	9.492102
399.465	11.61305
399.6313	14.51768
399.7975	9.898495
399.9637	13.55706
400.1299	8.892592
400.2961	9.364638
400.4624	8.835731
400.6286	16.3502
400.7948	14.33697
400.961	15.40995
401.1272	12.69416
401.2934	10.33634
401.4595	12.85617
401.6257	11.25199
401.7919	13.94335
401.9581	13.95444
402.1242	13.15738
402.2904	14.78637
402.4565	10.4827
402.6227	9.775921
402.7888	11.29367
402.955	13.7233
403.1211	15.34999
403.2872	15.3635
403.4533	12.06636
403.6194	14.46067
403.7856	10.00314
403.9517	14.92525
404.1177	15.87627
404.2838	10.58919
404.4499	12.31672
404.616	15.46114
404.7821	15.87501
404.9482	14.93196
405.1142	16.8057
405.2803	15.77412
405.4464	12.45754
405.6124	16.34949
405.7784	12.30397
405.9445	15.21327
406.1105	10.68709
406.2766	12.72969
406.4426	12.46469
406.6086	10.43173
406.7746	10.38927
406.9406	16.13892
407.1066	10.7518
407.2726	10.43086
407.4386	12.85628
407.6046	11.41292
407.7706	16.31854
407.9366	13.30743
408.1025	19.77396
408.2685	13.89608
408.4344	10.97849
408.6004	12.48959
408.7664	13.81364
408.9323	12.7232
409.0983	12.78624
409.2642	19.78495
409.4301	12.88291
409.596	12.11425
409.762	15.12923
409.9279	15.60452
410.0938	11.20089
410.2597	16.57125
410.4256	15.95288
410.5915	16.21118
410.7574	15.00047
410.9232	13.98847
411.0891	16.51063
411.255	15.43495
411.4209	16.58299
411.5867	24.43237
411.7526	18.85312
411.9184	12.95137
412.0843	17.6548
412.2501	12.47999
412.4159	15.07358
412.5818	13.67159
412.7476	15.16899
412.9134	17.80791
413.0792	12.02878
413.245	13.95043
413.4108	17.81267
413.5766	17.55155
413.7424	21.3672
413.9082	18.29226
414.074	17.12689
414.2397	15.10028
414.4055	15.22627
414.5713	17.76718
414.737	17.98644
414.9028	18.39595
415.0685	23.39182
415.2343	18.35556
415.4	17.12617
415.5658	18.16059
415.7315	19.04492
415.8972	21.77775
416.0629	14.68764
416.2286	19.50154
416.3943	18.85271
416.56	12.19507
416.7257	14.87053
416.8914	16.06101
417.0571	17.50927
417.2228	16.47387
417.3884	17.28996
417.5541	19.62913
417.7198	14.98085
417.8854	17.60445
418.0511	16.54811
418.2167	16.84152
418.3824	21.89889
418.548	22.85523
418.7136	18.85203
418.8792	17.79365
419.0449	16.35519
419.2105	17.75951
419.3761	19.48657
419.5417	19.08199
419.7073	21.71023
419.8729	20.01059
420.0385	19.06653
420.204	15.45004
420.3696	16.19842
420.5352	19.64918
420.7007	15.69574
420.8663	17.05265
421.0319	20.21547
421.1974	24.35272
421.3629	19.6891
421.5285	15.85518
421.694	19.30582
421.8595	19.54607
422.0251	13.7851
422.1906	14.27027
422.3561	18.49923
422.5216	21.16124
422.6871	20.00677
422.8526	19.19419
423.0181	16.90515
423.1835	17.46701
423.349	15.02189
423.5145	24.19219
423.68	19.27719
423.8454	23.14617
424.0109	22.3214
424.1763	19.41534
424.3418	22.51711
424.5072	23.12173
424.6726	17.94534
424.838	18.98207
425.0035	15.35451
425.1689	20.67216
425.3343	23.7907
425.4997	21.02242
425.6651	23.63697
425.8305	20.36309
425.9959	21.72336
426.1613	21.99215
426.3267	18.72022
426.492	22.59515
426.6574	22.90825
426.8228	21.00434
426.9881	20.52018
427.1534	19.37328
427.3188	20.71386
427.4841	22.08772
427.6495	20.05589
427.8148	22.24467
427.9801	21.92595
428.1454	23.66528
428.3107	17.59229
428.476	17.52949
428.6414	16.63293
428.8066	22.41814
428.9719	20.26388
429.1372	21.99896
429.3025	23.88859
429.4678	22.66001
429.633	23.46135
429.7983	24.12644
429.9636	16.9325
430.1288	16.38746
430.294	17.91548
430.4593	18.03946
430.6245	19.5513
430.7897	19.11303
430.955	18.26226
431.1202	18.24079
431.2854	17.49406
431.4506	20.09599
431.6158	25.10905
431.781	26.32994
431.9462	25.9689
432.1114	26.95778
432.2766	20.8522
432.4417	22.51987
432.6069	22.55028
432.772	23.09616
432.9372	26.92996
433.1024	26.61963
433.2675	28.87223
433.4326	27.16093
433.5977	22.91055
433.7629	23.94851
433.928	22.16118
434.0931	14.97342
434.2582	22.37422
434.4233	21.05231
434.5884	22.57842
434.7535	26.31636
434.9186	24.74872
435.0837	28.50079
435.2488	25.86724
435.4138	25.90567
435.5789	24.14853
435.744	25.2911
435.909	26.09265
436.0741	29.5394
436.2391	30.60345
436.4042	29.61389
436.5692	26.76305
436.7342	26.96771
436.8992	29.25226
437.0643	23.44012
437.2293	22.54907
437.3943	22.9098
437.5593	30.10512
437.7243	29.30134
437.8893	27.69585
438.0542	23.15746
438.2192	23.73031
438.3842	20.4759
438.5491	21.65294
438.7141	25.3471
438.8791	28.18256
439.044	29.66314
439.209	27.0679
439.3739	29.84315
439.5388	26.1451
439.7037	22.6346
439.8687	33.36245
440.0336	29.93968
440.1985	32.15183
440.3634	32.27758
440.5283	25.26221
440.6932	22.80318
440.8581	23.29854
441.0229	30.77385
441.1878	28.17452
441.3527	27.02687
441.5175	26.72686
441.6824	29.59764
441.8472	30.772
442.0121	29.88964
442.1769	31.0036
442.3418	31.95837
442.5066	28.28977
442.6714	30.16186
442.8362	26.45968
443.001	25.82811
443.1659	34.78529
443.3307	33.83516
443.4955	28.56709
443.6602	27.9628
443.825	29.8087
443.9898	34.98046
444.1546	27.57626
444.3193	26.85805
444.4841	29.93378
444.6488	27.96621
444.8136	33.20923
444.9783	34.56518
445.1431	31.82836
445.3078	27.73457
445.4725	28.67987
445.6372	24.67916
445.802	21.21924
445.9667	27.94476
446.1314	22.22714
446.2961	30.94835
446.4608	31.43729
446.6255	25.64021
446.7901	27.02229
446.9548	30.90144
447.1195	30.62224
447.2841	27.94742
447.4488	29.70418
447.6134	33.15532
447.7781	30.21687
447.9427	33.51999
448.1074	27.44709
448.272	27.8043
448.4366	30.78688
448.6012	28.95738
448.7658	31.12154
448.9305	31.88974
449.095	34.40466
449.2596	32.61195
449.4242	32.28531
449.5888	28.91331
449.7534	28.45868
449.9179	32.13894
450.0825	33.89504
450.2471	32.77298
450.4116	30.62903
450.5762	32.82894
450.7407	38.35215
450.9052	33.06048
451.0698	33.5022
451.2343	33.51676
451.3988	37.17064
451.5633	33.32912
451.7278	36.6449
451.8923	34.9745
452.0568	35.16531
452.2213	34.31873
452.3858	32.30901
452.5503	35.82008
452.7148	36.99448
452.8792	32.33504
453.0437	31.07272
453.2081	33.46211
453.3726	29.55075
453.537	26.13468
453.7015	28.7533
453.8659	29.50895
454.0303	35.41727
454.1947	34.92855
454.3592	35.93824
454.5236	35.73873
454.688	36.23048
454.8524	36.64105
455.0168	30.09518
455.1811	29.0195
455.3455	34.51575
455.5099	38.4265
455.6743	35.76104
455.8386	35.53344
456.003	36.06906
456.1673	40.33222
456.3317	34.69925
456.496	34.49331
456.6603	37.03997
456.8246	36.3802
456.989	35.93721
457.1533	39.60784
457.3176	37.74548
457.4819	35.35392
457.6462	43.89167
457.8105	38.55822
457.9748	39.24711
458.1391	38.36519
458.3033	34.21036
458.4676	32.56668
458.6319	33.97866
458.7961	39.32098
458.9604	34.00489
459.1246	37.78078
459.2888	33.28978
459.4531	34.80484
459.6173	36.17269
459.7815	36.03036
459.9457	33.38097
460.11	29.656
460.2741	36.17793
460.4384	36.03431
460.6025	40.54903
460.7667	39.27412
460.9309	35.91749
461.0951	36.7306
461.2592	38.0776
461.4234	34.05193
461.5876	35.55818
461.7517	38.52591
461.9159	37.21746
462.08	37.11864
462.2441	37.50394
462.4082	40.41882
462.5724	40.68538
462.7365	37.0298
462.9006	40.08775
463.0647	37.85762
463.2288	32.88889
463.3929	34.21833
463.557	42.15024
463.721	42.17821
463.8851	37.96969
464.0492	37.83181
464.2132	36.5527
464.3773	37.75382
464.5414	38.34551
464.7054	39.40575
464.8694	40.74673
465.0334	37.39669
465.1975	39.34884
465.3615	39.23351
465.5255	34.61113
465.6895	33.70939
465.8535	35.30645
466.0175	35.74289
466.1815	33.04119
466.3455	35.14138
466.5095	36.96661
466.6734	35.16217
466.8374	32.39626
467.0014	36.96576
467.1653	42.01331
467.3293	36.6752
467.4932	36.29802
467.6571	36.49541
467.8211	35.33362
467.985	40.17765
468.1489	34.80352
468.3128	35.02092
468.4767	39.41135
468.6406	33.06378
468.8045	37.52461
468.9684	42.42135
469.1323	44.08286
469.2962	39.90751
469.46	43.63096
469.6239	40.56254
469.7878	45.2618
469.9516	41.94274
470.1154	37.29092
470.2793	36.02414
470.4431	38.98338
470.607	37.56239
470.7708	44.71139
470.9346	42.55639
471.0984	43.41958
471.2622	36.88947
471.426	37.96008
471.5898	38.02155
471.7536	35.86992
471.9174	36.94441
472.0811	40.62783
472.2449	35.74265
472.4087	39.19389
472.5724	42.50949
472.7362	40.57775
472.8999	35.95889
473.0637	42.37032
473.2274	40.78646
473.3911	38.30476
473.5548	34.19179
473.7185	37.86992
473.8822	38.86386
474.0459	39.31958
474.2096	41.46544
474.3733	45.08782
474.537	37.4201
474.7007	43.03382
474.8643	38.40433
475.028	41.10729
475.1917	40.0498
475.3553	37.25201
475.519	31.40761
475.6826	35.74481
475.8463	38.68478
476.0099	38.1067
476.1735	38.37949
476.3371	38.53728
476.5007	38.35162
476.6643	38.30845
476.8279	38.18911
476.9915	36.2479
477.1551	35.81716
477.3187	38.62881
477.4823	42.26535
477.6458	41.94088
477.8094	43.48914
477.9729	42.85216
478.1365	40.07844
478.3	37.4125
478.4636	37.81863
478.6271	38.92507
478.7906	35.10834
478.9541	39.64251
479.1176	39.14501
479.2812	45.25856
479.4447	44.30234
479.6082	44.83552
479.7716	38.1936
479.9351	38.20139
480.0986	45.29543
480.2621	38.6343
480.4255	35.17686
480.589	36.76291
480.7524	40.75926
480.9159	37.78933
481.0793	39.25211
481.2428	38.90445
481.4062	39.5288
481.5696	39.42709
481.733	41.89709
481.8964	39.73832
482.0598	39.33051
482.2232	39.70282
482.3866	36.24551
482.55	40.90105
482.7134	38.84243
482.8768	40.7452
483.0401	40.99081
483.2035	39.37937
483.3668	37.48999
483.5302	43.01325
483.6935	40.26514
483.8568	37.11031
484.0202	38.88443
484.1835	36.99316
484.3468	40.59625
484.5101	42.28633
484.6734	38.33411
484.8367	41.35992
485	38.67501
485.1633	36.60748
485.3266	42.1238
485.4899	39.09821
485.6531	35.23896
485.8164	37.0971
485.9796	32.91765
486.1429	32.50158
486.3061	35.82389
486.4694	36.38334
486.6326	39.2366
486.7958	39.24025
486.959	38.58389
487.1223	41.90025
487.2855	41.26162
487.4486	38.90464
487.6118	41.47156
487.775	41.83491
487.9382	44.34406
488.1014	43.91278
488.2646	38.66319
488.4277	38.3584
488.5909	40.2585
488.754	40.26591
488.9171	35.14202
489.0803	39.09802
489.2434	38.63847
489.4066	38.19339
489.5697	43.47198
489.7328	43.63528
489.8959	45.41954
490.059	44.02017
490.2221	37.18925
490.3852	40.72145
490.5482	40.93248
490.7113	40.57755
490.8744	44.20573
491.0374	43.19744
491.2005	42.7377
491.3636	43.48495
491.5266	41.60747
491.6896	38.09178
491.8527	40.81676
492.0157	42.41685
492.1787	37.15645
492.3417	36.13264
492.5047	38.62256
492.6677	43.95541
492.8307	47.18596
492.9937	50.96568
493.1567	41.16774
493.3196	42.52373
493.4826	43.09328
493.6456	36.38382
493.8085	35.85123
493.9715	41.67464
494.1344	44.9106
494.2974	40.6021
494.4603	41.27606
494.6232	44.94048
494.7861	49.97989
494.949	46.11299
495.1119	43.33295
495.2748	41.11354
495.4377	41.49865
495.6006	39.67643
495.7635	42.04753
495.9264	41.69065
496.0892	46.04735
496.2521	42.56615
496.4149	50.86814
496.5778	44.09913
496.7407	43.14973
496.9035	45.47506
497.0663	46.7763
497.2291	45.55928
497.3919	43.13514
497.5547	46.2673
497.7176	42.45738
497.8804	46.1897
498.0432	43.17546
498.2059	39.38591
498.3687	43.62297
498.5315	40.46975
498.6942	41.64763
498.857	41.61541
499.0198	46.41265
499.1825	47.85592
499.3452	42.42484
499.508	43.49702
499.6707	43.32905
499.8334	45.96086
499.9962	46.67167
500.1589	41.8544
500.3216	36.79951
500.4843	41.46079
500.6469	41.66861
500.8096	43.96248
500.9723	44.1886
501.135	41.96087
501.2976	41.13941
501.4603	39.52778
501.623	41.98083
501.7856	42.20268
501.9482	41.09094
502.1109	43.76431
502.2735	48.51438
502.4361	43.20095
502.5987	44.80766
502.7614	45.23129
502.924	44.83759
503.0865	46.35574
503.2491	44.96959
503.4117	44.23902
503.5743	43.71415
503.7368	46.84546
503.8994	43.80078
504.062	44.35973
504.2245	40.45486
504.3871	45.62437
504.5496	41.99474
504.7121	43.4952
504.8746	41.71819
505.0372	46.88493
505.1997	42.68479
505.3622	42.37785
505.5247	49.42186
505.6872	48.14078
505.8497	42.98808
506.0121	46.75204
506.1746	46.53711
506.3371	53.10812
506.4995	46.83654
506.662	42.72922
506.8244	45.18826
506.9869	46.24417
507.1493	44.80913
507.3117	46.39952
507.4742	46.15683
507.6366	47.21003
507.799	48.08661
507.9614	49.27282
508.1238	48.87641
508.2862	47.78129
508.4485	46.99074
508.6109	45.54108
508.7733	46.91693
508.9357	43.16389
509.098	46.60589
509.2604	48.708
509.4227	49.26771
509.5851	52.53848
509.7474	48.60735
509.9097	49.93029
510.072	55.94002
510.2343	54.38989
510.3966	53.09524
510.5589	50.03499
510.7212	49.37571
510.8835	50.83728
511.0458	49.43751
511.2081	52.80386
511.3703	50.15506
511.5326	52.35959
511.6949	48.70658
511.8571	50.02038
512.0193	53.39496
512.1816	52.28352
512.3438	52.34396
512.506	50.90348
512.6682	48.52087
512.8304	50.15493
512.9926	49.88327
513.1548	45.49036
513.317	51.73838
513.4792	52.79778
513.6414	55.93798
513.8035	56.48387
513.9657	52.13935
514.1279	43.53219
514.29	48.64087
514.4521	52.73052
514.6143	50.94864
514.7764	53.10111
514.9385	53.76348
515.1006	47.63934
515.2628	46.02677
515.4249	48.45132
515.587	55.38315
515.7491	55.26013
515.9111	57.8186
516.0732	51.93938
516.2353	55.08131
