SPECTRUM DATA FILE
SpectrumCount:	1
PixelCount:	3648
UserName:	ToughBook User
SampleName:	
LightSource:	
Comments:	
DeviceName:	Qwave
DeviceManufacturer:	Broadcom
DeviceSerialNo:	11311

Name:	last spectrum
Date:	2024-05-02T15:07:29.8286800+02:00
ExposureTime:	0.02
TemporalAvg:	1
IntensityUnit:	normalizedCounts
CCDLoadLevel:	0.0228147
Temperature:	27.96298
DiagramColor:	200
ProcessingSteps:	335

Wavelength [nm]	Intensity1
334.421	8.604831
334.5891	6.151508
334.7573	-0.2476255
334.9254	-0.9985455
335.0935	4.43513
335.2616	9.227743
335.4297	5.162549
335.5978	5.450905
335.7659	2.867301
335.934	5.935501
336.1021	4.632779
336.2701	1.655853
336.4382	4.844212
336.6063	3.725667
336.7744	3.637646
336.9424	7.582038
337.1105	5.528757
337.2785	4.356646
337.4466	2.261868
337.6146	1.522242
337.7827	2.929204
337.9507	6.351966
338.1187	7.052583
338.2867	3.822633
338.4548	4.904166
338.6228	3.104407
338.7908	2.795384
338.9588	0.4257861
339.1268	5.467725
339.2948	9.051093
339.4628	3.915931
339.6308	5.718057
339.7988	4.340207
339.9667	5.924061
340.1347	0.7420961
340.3027	2.911964
340.4707	7.356504
340.6386	4.75913
340.8066	1.961115
340.9745	6.160213
341.1425	5.05251
341.3104	4.257379
341.4784	6.997624
341.6463	1.965734
341.8142	6.927675
341.9821	6.193231
342.1501	6.42026
342.318	6.171957
342.4859	7.058754
342.6538	5.857724
342.8217	4.424899
342.9896	1.381079
343.1575	2.966628
343.3254	8.831251
343.4933	2.41611
343.6612	4.127947
343.829	0.2357409
343.9969	6.279927
344.1648	5.729683
344.3326	8.734502
344.5005	6.282511
344.6683	3.219245
344.8362	4.292634
345.004	-0.0726426
345.1719	5.960299
345.3397	5.6696
345.5075	8.016817
345.6754	5.202409
345.8432	2.125861
346.011	3.782173
346.1788	1.880504
346.3466	5.787872
346.5144	7.009004
346.6822	4.667586
346.85	3.081276
347.0178	5.147372
347.1856	5.523585
347.3534	6.667729
347.5211	2.959254
347.6889	-0.01896504
347.8567	1.658382
348.0244	1.870681
348.1922	3.811583
348.3599	3.445858
348.5277	5.41364
348.6954	5.202994
348.8632	8.01673
349.0309	0.6787146
349.1986	4.895233
349.3663	7.146268
349.5341	6.498214
349.7018	7.465071
349.8695	6.294563
350.0372	6.029667
350.2049	5.138361
350.3726	3.150902
350.5403	-0.3620509
350.7079	3.960554
350.8756	3.761683
351.0433	3.000623
351.211	5.065741
351.3786	3.740764
351.5463	4.299704
351.714	-0.4257423
351.8816	11.11065
352.0493	10.95202
352.2169	4.785931
352.3846	5.721357
352.5522	8.37571
352.7198	3.844884
352.8875	8.982073
353.0551	8.284379
353.2227	6.328332
353.3903	4.654154
353.5579	3.586246
353.7255	5.191105
353.8931	7.720508
354.0607	6.89229
354.2283	2.387281
354.3958	1.834323
354.5634	4.40766
354.731	2.300073
354.8986	6.350229
355.0661	1.343635
355.2337	3.056499
355.4012	1.853203
355.5688	3.861132
355.7363	5.33902
355.9039	4.517988
356.0714	1.348752
356.239	8.823707
356.4065	3.198763
356.574	6.769279
356.7415	9.764874
356.909	5.787892
357.0765	5.352571
357.244	3.353112
357.4115	3.3223
357.579	5.20837
357.7465	8.715439
357.914	9.193196
358.0815	6.502697
358.249	5.110624
358.4164	7.118483
358.5839	2.666183
358.7513	10.06882
358.9188	6.119034
359.0862	6.905223
359.2537	11.53031
359.4211	-0.04149825
359.5886	4.622333
359.756	2.714137
359.9234	6.602249
360.0909	2.259027
360.2583	5.041587
360.4257	5.642814
360.5931	6.853627
360.7605	9.263392
360.9279	8.635761
361.0953	4.60925
361.2627	3.696654
361.4301	11.13146
361.5974	0.8967941
361.7648	2.597352
361.9322	5.149869
362.0995	6.347438
362.2669	4.089103
362.4343	8.771409
362.6016	11.21285
362.769	9.138597
362.9363	12.91345
363.1036	2.62476
363.271	5.348763
363.4383	5.952137
363.6056	7.155867
363.7729	7.686022
363.9402	5.098163
364.1075	3.383922
364.2748	5.462124
364.4421	5.567572
364.6094	4.598549
364.7767	4.191901
364.944	0.6450059
365.1113	7.757817
365.2786	10.14374
365.4458	10.0425
365.6131	9.260908
365.7803	12.13353
365.9476	10.41777
366.1148	7.118982
366.2821	7.309293
366.4493	8.036867
366.6166	3.452066
366.7838	4.581107
366.951	8.032803
367.1182	9.718702
367.2855	7.594166
367.4527	6.959036
367.6199	7.538416
367.7871	7.919153
367.9543	8.790257
368.1215	6.577581
368.2886	7.88339
368.4558	6.382556
368.623	7.477722
368.7902	6.034234
368.9573	11.18461
369.1245	9.706567
369.2917	7.380184
369.4588	8.419569
369.6259	7.946529
369.7931	8.596552
369.9602	3.573491
370.1274	5.061203
370.2945	5.331542
370.4616	6.548637
370.6287	7.073747
370.7958	8.592971
370.963	6.011823
371.1301	7.88422
371.2971	8.934634
371.4643	8.148213
371.6313	12.8131
371.7984	11.58771
371.9655	5.019078
372.1326	2.706173
372.2997	10.44957
372.4667	6.343284
372.6338	10.83139
372.8008	9.352874
372.9679	8.526007
373.1349	6.776707
373.3019	7.265018
373.469	4.752253
373.636	10.48694
373.803	8.866681
373.9701	8.208569
374.1371	5.003645
374.3041	8.696133
374.4711	2.704471
374.6381	5.025454
374.8051	5.51019
374.9721	8.345599
375.1391	9.002968
375.3061	9.559618
375.473	13.31737
375.64	10.4629
375.8069	8.453334
375.9739	11.48377
376.1409	9.244596
376.3078	13.53462
376.4748	9.474495
376.6417	12.83543
376.8087	9.323905
376.9756	7.92006
377.1425	10.0228
377.3094	8.281464
377.4763	11.39353
377.6432	8.256881
377.8102	5.439668
377.9771	4.614715
378.144	5.845855
378.3109	11.80807
378.4777	10.65352
378.6446	6.413818
378.8115	7.829627
378.9784	5.249598
379.1452	4.155614
379.3121	9.596722
379.4789	11.42839
379.6458	7.619641
379.8127	6.195195
379.9795	5.288989
380.1463	7.005087
380.3131	8.003126
380.48	11.49647
380.6468	13.33038
380.8136	8.181308
380.9804	8.640771
381.1472	9.979856
381.314	12.40663
381.4808	6.899104
381.6476	9.298316
381.8144	11.28584
381.9812	9.440389
382.148	6.94564
382.3147	6.860344
382.4815	9.755442
382.6483	7.665648
382.815	5.78279
382.9818	4.211311
383.1485	5.632863
383.3153	10.17534
383.482	11.69172
383.6487	9.400743
383.8155	5.434518
383.9822	5.929717
384.1489	11.05277
384.3156	14.57104
384.4823	12.18264
384.649	6.669272
384.8157	8.093307
384.9824	7.877377
385.1491	5.030763
385.3158	9.317048
385.4825	5.776224
385.6491	12.45889
385.8158	10.82528
385.9825	7.677938
386.1491	13.16992
386.3157	14.42264
386.4824	8.849368
386.649	10.15247
386.8157	12.85872
386.9823	8.019491
387.1489	12.14833
387.3156	8.871865
387.4821	9.350057
387.6488	8.640032
387.8154	8.296431
387.982	12.91512
388.1486	4.393474
388.3152	10.61758
388.4818	8.121152
388.6483	8.184062
388.8149	7.159127
388.9815	10.62115
389.148	10.0682
389.3146	9.080714
389.4811	4.859014
389.6477	6.772923
389.8142	8.998325
389.9808	10.5546
390.1473	15.30824
390.3138	9.310909
390.4804	7.580612
390.6469	6.822642
390.8134	12.3654
390.9799	12.26833
391.1464	14.36172
391.3129	12.30555
391.4794	10.37344
391.6459	9.637238
391.8124	9.935306
391.9789	11.53783
392.1453	12.15229
392.3118	10.24802
392.4782	6.740398
392.6447	10.81017
392.8112	15.08748
392.9776	11.15054
393.144	6.371337
393.3105	8.185866
393.4769	8.265178
393.6433	7.684142
393.8098	7.068706
393.9762	6.75758
394.1426	7.210613
394.309	10.35482
394.4754	10.47173
394.6418	7.994761
394.8082	6.069147
394.9746	10.15272
395.141	14.93847
395.3073	13.32271
395.4737	11.81164
395.64	13.77536
395.8064	12.12681
395.9728	13.80199
396.1391	13.65854
396.3055	9.740615
396.4718	11.6517
396.6381	6.484038
396.8045	6.37594
396.9708	9.754203
397.1371	15.42472
397.3034	14.36897
397.4697	12.43766
397.636	12.12917
397.8023	8.76092
397.9686	11.05118
398.1349	12.30614
398.3012	10.22796
398.4675	11.89045
398.6337	11.1684
398.8	9.414723
398.9662	12.87309
399.1325	9.082259
399.2988	12.94025
399.465	15.01276
399.6313	12.74144
399.7975	14.56064
399.9637	12.45034
400.1299	13.33269
400.2961	15.03268
400.4624	14.30098
400.6286	16.15173
400.7948	15.20749
400.961	12.82784
401.1272	20.03565
401.2934	16.34132
401.4595	12.66254
401.6257	14.1087
401.7919	14.75292
401.9581	13.27554
402.1242	14.5836
402.2904	15.20067
402.4565	12.09771
402.6227	11.5818
402.7888	13.25794
402.955	13.26572
403.1211	12.55666
403.2872	16.7618
403.4533	13.61942
403.6194	14.61697
403.7856	13.51554
403.9517	14.57817
404.1177	12.91908
404.2838	17.34339
404.4499	15.28415
404.616	15.39026
404.7821	14.90575
404.9482	15.79239
405.1142	14.97017
405.2803	14.42156
405.4464	13.9862
405.6124	15.32059
405.7784	15.05392
405.9445	14.08818
406.1105	11.38414
406.2766	10.67664
406.4426	14.11045
406.6086	15.25795
406.7746	14.3863
406.9406	12.53403
407.1066	19.48156
407.2726	13.04187
407.4386	8.845725
407.6046	12.85006
407.7706	10.61331
407.9366	11.95176
408.1025	18.41366
408.2685	18.93482
408.4344	18.26555
408.6004	12.2612
408.7664	17.44527
408.9323	19.07764
409.0983	17.9504
409.2642	18.54029
409.4301	16.23961
409.596	13.614
409.762	14.48087
409.9279	21.25365
410.0938	14.10071
410.2597	12.20048
410.4256	14.07884
410.5915	14.00428
410.7574	18.89676
410.9232	15.77876
411.0891	21.46668
411.255	17.11708
411.4209	19.79978
411.5867	17.96467
411.7526	17.5216
411.9184	22.74152
412.0843	19.50075
412.2501	18.88158
412.4159	20.17303
412.5818	17.78495
412.7476	17.49738
412.9134	19.38098
413.0792	15.5506
413.245	22.49404
413.4108	16.0648
413.5766	15.04018
413.7424	19.44621
413.9082	20.90428
414.074	17.40548
414.2397	14.87891
414.4055	18.00355
414.5713	17.48733
414.737	22.21443
414.9028	22.93178
415.0685	21.42502
415.2343	21.06741
415.4	18.02297
415.5658	17.92897
415.7315	17.18441
415.8972	17.12855
416.0629	15.62562
416.2286	16.9223
416.3943	24.66112
416.56	20.60942
416.7257	22.1068
416.8914	20.12532
417.0571	22.1287
417.2228	19.30457
417.3884	16.16591
417.5541	21.75147
417.7198	21.82767
417.8854	19.26465
418.0511	19.11613
418.2167	18.45819
418.3824	18.30371
418.548	16.73315
418.7136	23.82417
418.8792	21.26353
419.0449	24.72137
419.2105	22.13617
419.3761	24.24959
419.5417	24.0275
419.7073	23.40699
419.8729	19.45546
420.0385	21.57794
420.204	19.64508
420.3696	18.94379
420.5352	20.1089
420.7007	16.82525
420.8663	15.06503
421.0319	21.55741
421.1974	21.70159
421.3629	23.05693
421.5285	19.65144
421.694	22.48186
421.8595	19.28487
422.0251	23.85781
422.1906	25.34316
422.3561	21.0657
422.5216	22.34327
422.6871	20.03839
422.8526	22.2022
423.0181	20.46516
423.1835	22.54057
423.349	22.05667
423.5145	24.0513
423.68	20.26269
423.8454	21.92338
424.0109	21.64137
424.1763	24.93901
424.3418	20.25334
424.5072	20.75655
424.6726	20.69793
424.838	20.55226
425.0035	20.96113
425.1689	22.37348
425.3343	22.62524
425.4997	20.61956
425.6651	26.05902
425.8305	19.60817
425.9959	23.59738
426.1613	25.80287
426.3267	22.65495
426.492	22.92635
426.6574	22.98077
426.8228	22.97978
426.9881	17.22621
427.1534	26.57945
427.3188	23.29551
427.4841	24.54263
427.6495	22.26183
427.8148	25.25915
427.9801	24.63351
428.1454	23.30231
428.3107	21.91105
428.476	29.68778
428.6414	25.51104
428.8066	23.25631
428.9719	20.63585
429.1372	19.53555
429.3025	22.34286
429.4678	20.76687
429.633	26.82033
429.7983	23.04846
429.9636	17.34505
430.1288	22.25521
430.294	17.97641
430.4593	19.94208
430.6245	17.62519
430.7897	15.56235
430.955	23.46931
431.1202	22.17716
431.2854	25.08372
431.4506	20.72072
431.6158	20.34706
431.781	24.08434
431.9462	31.723
432.1114	27.44421
432.2766	25.30095
432.4417	20.92842
432.6069	24.35832
432.772	28.67602
432.9372	25.70308
433.1024	27.75906
433.2675	27.10563
433.4326	23.51175
433.5977	27.36254
433.7629	27.36707
433.928	22.30202
434.0931	19.35106
434.2582	23.98498
434.4233	24.11167
434.5884	30.11033
434.7535	25.61137
434.9186	29.48241
435.0837	28.12768
435.2488	25.56356
435.4138	21.86181
435.5789	29.70559
435.744	29.23128
435.909	29.02448
436.0741	27.46719
436.2391	29.75692
436.4042	30.37089
436.5692	29.79332
436.7342	27.74548
436.8992	28.6844
437.0643	29.56841
437.2293	27.57403
437.3943	27.27941
437.5593	28.76786
437.7243	27.72929
437.8893	29.6069
438.0542	30.78536
438.2192	27.13823
438.3842	31.13297
438.5491	29.75794
438.7141	30.70471
438.8791	29.99863
439.044	33.02332
439.209	34.25838
439.3739	30.14241
439.5388	36.77903
439.7037	34.69286
439.8687	34.19047
440.0336	32.92528
440.1985	30.54734
440.3634	32.13675
440.5283	26.1925
440.6932	27.47582
440.8581	28.82505
441.0229	31.73948
441.1878	38.03925
441.3527	33.3949
441.5175	30.7282
441.6824	33.41736
441.8472	29.30383
442.0121	37.61158
442.1769	36.27122
442.3418	34.3396
442.5066	36.19328
442.6714	33.72262
442.8362	34.72515
443.001	32.42387
443.1659	38.71275
443.3307	33.46857
443.4955	36.53402
443.6602	36.78209
443.825	36.81446
443.9898	36.32446
444.1546	37.376
444.3193	31.93051
444.4841	31.50972
444.6488	28.16381
444.8136	28.75188
444.9783	29.5128
445.1431	36.75228
445.3078	36.81723
445.4725	31.38358
445.6372	35.33827
445.802	31.16856
445.9667	31.10216
446.1314	31.86467
446.2961	29.64585
446.4608	33.46943
446.6255	36.47888
446.7901	30.75931
446.9548	30.82427
447.1195	34.55358
447.2841	35.85291
447.4488	34.00865
447.6134	34.09579
447.7781	40.24443
447.9427	35.65072
448.1074	38.83798
448.272	37.66703
448.4366	37.32927
448.6012	35.64515
448.7658	35.21229
448.9305	35.04379
449.095	37.47301
449.2596	37.11268
449.4242	38.17701
449.5888	36.68866
449.7534	37.75319
449.9179	34.81678
450.0825	37.70861
450.2471	37.34713
450.4116	37.02832
450.5762	40.27711
450.7407	37.18931
450.9052	38.88063
451.0698	37.82388
451.2343	35.99552
451.3988	38.05884
451.5633	45.22607
451.7278	39.68182
451.8923	34.17719
452.0568	39.92286
452.2213	40.98932
452.3858	42.93939
452.5503	42.19445
452.7148	36.40328
452.8792	36.73919
453.0437	37.91119
453.2081	34.82126
453.3726	38.73156
453.537	37.71217
453.7015	34.71516
453.8659	37.58194
454.0303	44.33816
454.1947	41.66567
454.3592	40.34036
454.5236	42.51669
454.688	38.00103
454.8524	39.68342
455.0168	41.99446
455.1811	51.05991
455.3455	41.54373
455.5099	44.04179
455.6743	39.73505
455.8386	38.96992
456.003	39.50581
456.1673	44.35509
456.3317	38.63658
456.496	41.83104
456.6603	44.86259
456.8246	43.36356
456.989	45.53894
457.1533	48.27854
457.3176	46.99799
457.4819	45.75362
457.6462	42.56479
457.8105	48.25251
457.9748	41.75002
458.1391	37.79907
458.3033	34.86515
458.4676	38.23346
458.6319	39.82958
458.7961	40.22933
458.9604	40.15405
459.1246	44.62844
459.2888	39.38852
459.4531	41.23277
459.6173	39.73236
459.7815	43.11599
459.9457	43.47884
460.11	39.485
460.2741	41.98488
460.4384	39.46653
460.6025	41.05502
460.7667	46.67644
460.9309	47.25706
461.0951	38.00793
461.2592	39.74081
461.4234	44.51163
461.5876	40.2752
461.7517	48.25984
461.9159	45.2042
462.08	41.55862
462.2441	45.5932
462.4082	45.71307
462.5724	41.00603
462.7365	40.17202
462.9006	40.87154
463.0647	41.7448
463.2288	42.63864
463.3929	42.01444
463.557	40.95015
463.721	39.69494
463.8851	44.59285
464.0492	42.98526
464.2132	44.00287
464.3773	44.94611
464.5414	40.65373
464.7054	43.40323
464.8694	43.16738
465.0334	40.52269
465.1975	36.10239
465.3615	44.48449
465.5255	37.84912
465.6895	38.6995
465.8535	41.56303
466.0175	41.00824
466.1815	43.38337
466.3455	45.1849
466.5095	40.08279
466.6734	40.57004
466.8374	41.22921
467.0014	37.72034
467.1653	39.65578
467.3293	42.34348
467.4932	45.00256
467.6571	38.5502
467.8211	38.51778
467.985	40.67042
468.1489	40.60884
468.3128	40.77485
468.4767	40.28334
468.6406	41.35675
468.8045	45.5154
468.9684	45.29364
469.1323	47.15672
469.2962	42.11634
469.46	46.32129
469.6239	46.13907
469.7878	36.69395
469.9516	39.808
470.1154	45.68412
470.2793	45.29258
470.4431	44.9111
470.607	41.89461
470.7708	44.87356
470.9346	43.67702
471.0984	49.3126
471.2622	47.27385
471.426	43.33429
471.5898	39.44957
471.7536	43.59213
471.9174	45.39647
472.0811	41.25278
472.2449	42.09706
472.4087	46.62644
472.5724	49.32296
472.7362	49.14106
472.8999	41.64227
473.0637	41.21373
473.2274	41.82086
473.3911	41.38293
473.5548	43.40978
473.7185	47.97143
473.8822	42.16559
474.0459	39.2971
474.2096	48.5181
474.3733	45.99669
474.537	46.54379
474.7007	50.37634
474.8643	51.6081
475.028	51.03011
475.1917	42.09005
475.3553	43.6927
475.519	41.74254
475.6826	49.57409
475.8463	49.48447
476.0099	46.41498
476.1735	49.55058
476.3371	48.09855
476.5007	45.83433
476.6643	40.9762
476.8279	39.92346
476.9915	45.40273
477.1551	43.14915
477.3187	45.08994
477.4823	47.73885
477.6458	50.4374
477.8094	55.01273
477.9729	48.58236
478.1365	49.42309
478.3	46.34952
478.4636	44.04035
478.6271	40.86578
478.7906	44.545
478.9541	43.89384
479.1176	42.64797
479.2812	44.06099
479.4447	46.99632
479.6082	49.43613
479.7716	50.05476
479.9351	48.06862
480.0986	50.62211
480.2621	46.91023
480.4255	48.09594
480.589	43.68358
480.7524	42.78433
480.9159	45.41672
481.0793	49.02556
481.2428	48.78289
481.4062	49.49406
481.5696	45.09926
481.733	48.00766
481.8964	44.98903
482.0598	40.69231
482.2232	48.71597
482.3866	48.105
482.55	47.05149
482.7134	44.88002
482.8768	43.66468
483.0401	41.80718
483.2035	42.92266
483.3668	47.44466
483.5302	47.94942
483.6935	46.02151
483.8568	43.2728
484.0202	44.57438
484.1835	46.09565
484.3468	45.25499
484.5101	48.51974
484.6734	47.38836
484.8367	48.57074
485	38.80175
485.1633	40.50244
485.3266	45.43457
485.4899	45.1258
485.6531	40.44704
485.8164	38.49814
485.9796	38.91225
486.1429	38.51476
486.3061	39.86914
486.4694	36.94655
486.6326	40.97028
486.7958	45.66591
486.959	46.49019
487.1223	45.32932
487.2855	45.22119
487.4486	43.74461
487.6118	43.77103
487.775	49.57953
487.9382	47.69546
488.1014	44.44043
488.2646	42.60432
488.4277	42.00441
488.5909	44.99546
488.754	44.56181
488.9171	44.26578
489.0803	41.6444
489.2434	42.35637
489.4066	48.83333
489.5697	51.62242
489.7328	51.37299
489.8959	49.10397
490.059	45.90049
490.2221	48.18929
490.3852	50.74595
490.5482	47.52962
490.7113	45.35484
490.8744	43.26725
491.0374	44.41177
491.2005	45.68598
491.3636	53.3891
491.5266	47.48591
491.6896	41.74801
491.8527	40.73123
492.0157	43.23401
492.1787	44.71353
492.3417	43.46696
492.5047	43.66967
492.6677	52.58981
492.8307	48.09039
492.9937	45.23244
493.1567	46.797
493.3196	50.82718
493.4826	50.1145
493.6456	49.00205
493.8085	49.72486
493.9715	46.36146
494.1344	47.13362
494.2974	48.84713
494.4603	50.06601
494.6232	47.72333
494.7861	48.07148
494.949	55.07375
495.1119	49.80159
495.2748	48.56192
495.4377	49.81495
495.6006	52.00354
495.7635	45.26071
495.9264	51.34089
496.0892	48.99091
496.2521	51.53555
496.4149	50.18645
496.5778	50.23932
496.7407	42.46577
496.9035	47.30357
497.0663	49.48989
497.2291	48.39437
497.3919	49.21508
497.5547	51.21131
497.7176	51.44537
497.8804	49.40673
498.0432	49.66967
498.2059	44.6097
498.3687	46.91612
498.5315	50.24237
498.6942	54.35784
498.857	51.92912
499.0198	47.27526
499.1825	51.26698
499.3452	48.36112
499.508	46.25387
499.6707	48.76138
499.8334	50.63336
499.9962	49.33325
500.1589	47.50164
500.3216	49.37911
500.4843	48.73916
500.6469	45.69516
500.8096	49.50932
500.9723	53.42876
501.135	51.51027
501.2976	48.89719
501.4603	49.17558
501.623	48.02238
501.7856	44.39288
501.9482	48.0508
502.1109	46.36737
502.2735	48.12633
502.4361	51.10347
502.5987	45.94515
502.7614	51.62404
502.924	47.31583
503.0865	51.25268
503.2491	49.5975
503.4117	53.18866
503.5743	51.27188
503.7368	45.11269
503.8994	42.57915
504.062	41.63692
504.2245	43.72458
504.3871	48.25327
504.5496	51.61512
504.7121	49.2781
504.8746	49.61687
505.0372	49.55732
505.1997	53.48454
505.3622	53.99839
505.5247	49.69471
505.6872	50.5844
505.8497	59.74747
506.0121	57.14907
506.1746	54.30307
506.3371	50.44299
506.4995	52.67068
506.662	51.23432
506.8244	55.40554
506.9869	59.34869
507.1493	58.24783
507.3117	52.00281
507.4742	59.1599
507.6366	57.38976
507.799	55.2946
507.9614	51.78125
508.1238	54.97706
508.2862	56.35508
508.4485	54.94271
508.6109	53.46745
508.7733	58.57355
508.9357	58.74266
509.098	62.37523
509.2604	61.78502
509.4227	63.90318
509.5851	53.16859
509.7474	55.98978
509.9097	52.20426
510.072	52.94427
510.2343	58.09576
510.3966	59.83508
510.5589	61.65372
510.7212	52.33645
510.8835	51.10705
511.0458	55.69249
511.2081	55.5304
511.3703	55.25474
511.5326	53.48835
511.6949	53.60821
511.8571	57.80244
512.0193	64.42443
512.1816	67.16782
512.3438	54.29403
512.506	57.18497
512.6682	56.91558
512.8304	57.02417
512.9926	54.92451
513.1548	56.83912
513.317	52.52831
513.4792	52.71209
513.6414	56.20463
513.8035	56.59198
513.9657	54.55436
514.1279	59.66053
514.29	58.37363
514.4521	52.45029
514.6143	62.94349
514.7764	54.16449
514.9385	51.85043
515.1006	55.66631
515.2628	60.65751
515.4249	56.83037
515.587	59.89129
515.7491	60.6235
515.9111	63.95249
516.0732	66.96841
