SPECTRUM DATA FILE
SpectrumCount:	1
PixelCount:	3648
UserName:	ToughBook User
SampleName:	
LightSource:	
Comments:	
DeviceName:	Qwave
DeviceManufacturer:	Broadcom
DeviceSerialNo:	11311

Name:	last spectrum
Date:	2024-05-02T14:49:16.2818447+02:00
ExposureTime:	0.02
TemporalAvg:	1
IntensityUnit:	normalizedCounts
CCDLoadLevel:	0.06454878
Temperature:	31.93027
DiagramColor:	200
ProcessingSteps:	335

Wavelength [nm]	Intensity1
334.421	26.52824
334.5891	23.60818
334.7573	26.57681
334.9254	30.28717
335.0935	31.18419
335.2616	35.62057
335.4297	29.38305
335.5978	25.62802
335.7659	23.83326
335.934	27.71927
336.1021	30.79858
336.2701	27.91542
336.4382	26.43883
336.6063	25.16539
336.7744	29.55199
336.9424	31.71602
337.1105	27.78175
337.2785	25.52642
337.4466	26.21555
337.6146	26.76334
337.7827	27.0963
337.9507	22.73201
338.1187	28.43919
338.2867	29.7967
338.4548	27.07193
338.6228	25.7515
338.7908	23.19494
338.9588	26.10016
339.1268	26.21649
339.2948	29.11685
339.4628	27.63245
339.6308	26.10645
339.7988	28.16745
339.9667	28.51991
340.1347	24.375
340.3027	28.16069
340.4707	26.45251
340.6386	23.75354
340.8066	22.56237
340.9745	27.52675
341.1425	27.9586
341.3104	26.28431
341.4784	24.61292
341.6463	29.10367
341.8142	23.79691
341.9821	28.22122
342.1501	24.99456
342.318	22.70156
342.4859	24.96816
342.6538	31.10666
342.8217	30.4891
342.9896	25.44927
343.1575	28.84013
343.3254	27.94835
343.4933	33.25186
343.6612	29.08629
343.829	29.64352
343.9969	31.14271
344.1648	34.8042
344.3326	25.62138
344.5005	28.33621
344.6683	28.69733
344.8362	26.38642
345.004	33.04434
345.1719	30.16264
345.3397	27.97543
345.5075	31.73952
345.6754	30.33299
345.8432	34.05204
346.011	31.59526
346.1788	31.45163
346.3466	32.28194
346.5144	26.13629
346.6822	28.15909
346.85	33.61308
347.0178	32.13853
347.1856	24.25688
347.3534	29.50912
347.5211	30.82274
347.6889	27.9418
347.8567	26.23207
348.0244	31.29413
348.1922	28.66742
348.3599	31.71127
348.5277	29.02247
348.6954	27.76648
348.8632	24.55729
349.0309	25.26453
349.1986	27.58788
349.3663	26.3053
349.5341	24.39836
349.7018	26.74562
349.8695	30.62452
350.0372	31.68597
350.2049	28.95697
350.3726	27.36002
350.5403	26.60722
350.7079	28.56274
350.8756	33.73049
351.0433	30.9773
351.211	30.16771
351.3786	24.7196
351.5463	27.90273
351.714	33.01158
351.8816	29.66499
352.0493	31.31876
352.2169	32.69444
352.3846	29.94598
352.5522	31.44978
352.7198	32.03812
352.8875	33.8698
353.0551	34.33867
353.2227	25.41763
353.3903	32.28353
353.5579	31.81653
353.7255	29.58065
353.8931	29.97539
354.0607	34.00003
354.2283	35.96935
354.3958	33.54194
354.5634	38.5001
354.731	36.3327
354.8986	35.51661
355.0661	31.77508
355.2337	34.91676
355.4012	35.39433
355.5688	39.91254
355.7363	34.61817
355.9039	34.11745
356.0714	32.03587
356.239	31.88744
356.4065	32.7462
356.574	35.90791
356.7415	31.66215
356.909	32.4646
357.0765	34.41808
357.244	33.45734
357.4115	30.81685
357.579	31.71432
357.7465	36.13488
357.914	33.59278
358.0815	31.04814
358.249	30.56018
358.4164	29.94816
358.5839	29.66468
358.7513	27.29281
358.9188	31.40203
359.0862	31.94708
359.2537	31.49206
359.4211	33.95037
359.5886	35.11069
359.756	40.879
359.9234	36.56253
360.0909	34.52879
360.2583	38.29304
360.4257	39.46515
360.5931	37.33105
360.7605	30.85015
360.9279	31.72574
361.0953	35.50205
361.2627	36.94986
361.4301	33.41656
361.5974	31.07973
361.7648	31.37722
361.9322	37.90086
362.0995	33.02799
362.2669	33.91992
362.4343	32.28164
362.6016	34.02361
362.769	36.6875
362.9363	36.50426
363.1036	37.52801
363.271	38.22813
363.4383	31.78916
363.6056	34.5122
363.7729	36.53148
363.9402	41.71875
364.1075	40.2075
364.2748	36.94524
364.4421	36.876
364.6094	37.74191
364.7767	37.0581
364.944	36.9442
365.1113	39.25795
365.2786	41.00981
365.4458	40.90856
365.6131	42.02494
365.7803	42.4204
365.9476	41.91832
366.1148	42.2154
366.2821	39.63165
366.4493	35.86921
366.6166	36.68345
366.7838	36.62776
366.951	39.849
367.1182	42.23428
367.2855	40.4915
367.4527	33.77635
367.6199	32.64638
367.7871	36.21717
367.9543	40.03163
368.1215	33.04415
368.2886	37.31401
368.4558	42.81047
368.623	38.48059
368.7902	38.55934
368.9573	39.89375
369.1245	36.8796
369.2917	35.83573
369.4588	35.46448
369.6259	39.07428
369.7931	41.29558
369.9602	40.81449
370.1274	44.22243
370.2945	42.05479
370.4616	43.41519
370.6287	38.67775
370.7958	37.87116
370.963	35.04972
371.1301	40.86038
371.2971	42.62119
371.4643	43.18933
371.6313	41.01316
371.7984	41.35616
371.9655	41.61541
372.1326	42.18323
372.2997	45.4691
372.4667	41.64836
372.6338	44.91748
372.8008	44.48766
372.9679	42.5052
373.1349	41.6644
373.3019	39.75138
373.469	41.34348
373.636	41.37859
373.803	42.52684
373.9701	45.98789
374.1371	49.56943
374.3041	47.59286
374.4711	42.18425
374.6381	46.45127
374.8051	43.94779
374.9721	40.2305
375.1391	44.04726
375.3061	45.57306
375.473	47.1001
375.64	50.42683
375.8069	48.97324
375.9739	42.94476
376.1409	46.41218
376.3078	51.57603
376.4748	45.82359
376.6417	43.82688
376.8087	46.80764
376.9756	47.89221
377.1425	52.6344
377.3094	46.20203
377.4763	47.70997
377.6432	52.47322
377.8102	51.88594
377.9771	48.91573
378.144	53.6764
378.3109	50.31535
378.4777	48.31337
378.6446	49.10435
378.8115	48.25917
378.9784	45.08196
379.1452	39.42104
379.3121	40.60302
379.4789	44.74979
379.6458	44.94715
379.8127	46.46584
379.9795	43.22556
380.1463	42.92095
380.3131	43.54869
380.48	47.83319
380.6468	52.60664
380.8136	54.22268
380.9804	49.9192
381.1472	49.55832
381.314	42.76252
381.4808	43.08137
381.6476	47.5944
381.8144	43.71243
381.9812	40.52317
382.148	41.1532
382.3147	43.19985
382.4815	38.51196
382.6483	37.16288
382.815	36.02168
382.9818	40.72769
383.1485	45.17868
383.3153	40.35594
383.482	41.84215
383.6487	41.03198
383.8155	48.00648
383.9822	50.00304
384.1489	46.62188
384.3156	40.81858
384.4823	48.27757
384.649	53.2752
384.8157	51.90545
384.9824	55.90615
385.1491	50.42796
385.3158	54.34112
385.4825	54.52309
385.6491	51.34134
385.8158	48.37282
385.9825	47.63907
386.1491	53.74942
386.3157	52.38655
386.4824	52.67884
386.649	52.92886
386.8157	53.92884
386.9823	46.86256
387.1489	45.84295
387.3156	57.89098
387.4821	56.2949
387.6488	54.35731
387.8154	49.6758
387.982	55.04367
388.1486	47.74577
388.3152	47.6514
388.4818	53.53269
388.6483	51.676
388.8149	51.60507
388.9815	49.21224
389.148	51.95932
389.3146	53.72987
389.4811	55.26042
389.6477	52.50735
389.8142	53.61923
389.9808	54.6339
390.1473	53.12981
390.3138	52.92905
390.4804	51.76894
390.6469	62.683
390.8134	61.28642
390.9799	53.8597
391.1464	56.85904
391.3129	55.40213
391.4794	57.46858
391.6459	56.57459
391.8124	60.5957
391.9789	52.35777
392.1453	51.39103
392.3118	50.67861
392.4782	51.27321
392.6447	49.74886
392.8112	51.09285
392.9776	49.81115
393.144	52.32015
393.3105	45.38676
393.4769	43.5108
393.6433	39.36411
393.8098	49.14253
393.9762	52.93131
394.1426	51.46127
394.309	50.63846
394.4754	57.67538
394.6418	61.46239
394.8082	58.30642
394.9746	59.8549
395.141	60.95008
395.3073	63.86279
395.4737	65.75539
395.64	62.05138
395.8064	64.23483
395.9728	63.35157
396.1391	59.31884
396.3055	52.09818
396.4718	56.1221
396.6381	49.86734
396.8045	47.62529
396.9708	51.27224
397.1371	49.92923
397.3034	55.77304
397.4697	56.7001
397.636	64.51122
397.8023	67.29482
397.9686	70.41248
398.1349	73.88757
398.3012	75.55427
398.4675	73.97584
398.6337	74.8167
398.8	73.68073
398.9662	70.72014
399.1325	70.83425
399.2988	72.06211
399.465	72.44061
399.6313	71.63805
399.7975	73.57758
399.9637	75.53948
400.1299	77.60345
400.2961	77.58894
400.4624	73.59022
400.6286	73.21197
400.7948	74.90963
400.961	76.6324
401.1272	76.28825
401.2934	81.00733
401.4595	79.99023
401.6257	75.61961
401.7919	76.76151
401.9581	81.94248
402.1242	78.78552
402.2904	72.70949
402.4565	79.56321
402.6227	75.15471
402.7888	79.1993
402.955	77.11658
403.1211	74.83054
403.2872	72.61122
403.4533	73.63542
403.6194	76.58785
403.7856	76.06304
403.9517	81.07323
404.1177	82.14452
404.2838	77.19988
404.4499	75.49228
404.616	75.84261
404.7821	76.71774
404.9482	81.04721
405.1142	81.25575
405.2803	80.25243
405.4464	81.22174
405.6124	75.11295
405.7784	79.32595
405.9445	78.66578
406.1105	82.23319
406.2766	75.87822
406.4426	74.37343
406.6086	78.26068
406.7746	83.09618
406.9406	84.78668
407.1066	82.89278
407.2726	82.59388
407.4386	85.09856
407.6046	84.99184
407.7706	83.10641
407.9366	77.69977
408.1025	78.22569
408.2685	82.07978
408.4344	88.85076
408.6004	88.07738
408.7664	90.37074
408.9323	91.7701
409.0983	92.30962
409.2642	89.54911
409.4301	89.92185
409.596	86.60361
409.762	84.79601
409.9279	85.36423
410.0938	83.57153
410.2597	80.75957
410.4256	85.29957
410.5915	91.24171
410.7574	93.12476
410.9232	95.05765
411.0891	93.58788
411.255	96.42433
411.4209	94.4898
411.5867	92.74691
411.7526	97.69645
411.9184	99.97722
412.0843	89.64968
412.2501	96.83606
412.4159	95.53058
412.5818	99.60618
412.7476	103.1661
412.9134	102.3501
413.0792	96.35353
413.245	87.71283
413.4108	95.63747
413.5766	93.56906
413.7424	92.63504
413.9082	96.97703
414.074	96.00426
414.2397	90.55418
414.4055	95.62675
414.5713	97.53496
414.737	96.84769
414.9028	95.91169
415.0685	96.41302
415.2343	91.10854
415.4	91.79044
415.5658	93.65423
415.7315	92.73708
415.8972	93.68634
416.0629	97.09095
416.2286	98.31458
416.3943	98.79871
416.56	101.0228
416.7257	94.70919
416.8914	95.30151
417.0571	100.5825
417.2228	94.39983
417.3884	90.43802
417.5541	95.08855
417.7198	93.47385
417.8854	92.03478
418.0511	94.33362
418.2167	92.60956
418.3824	93.9356
418.548	98.30099
418.7136	98.75447
418.8792	100.1519
419.0449	99.62719
419.2105	98.71567
419.3761	101.7559
419.5417	100.2445
419.7073	99.48579
419.8729	100.5872
420.0385	98.68406
420.204	98.55495
420.3696	98.68097
420.5352	98.81483
420.7007	107.321
420.8663	104.612
421.0319	106.9149
421.1974	113.1009
421.3629	106.0057
421.5285	106.6662
421.694	106.8145
421.8595	108.0185
422.0251	106.16
422.1906	111.5868
422.3561	101.0853
422.5216	96.6031
422.6871	95.08324
422.8526	96.55949
423.0181	93.49127
423.1835	106.7715
423.349	109.9583
423.5145	114.8223
423.68	107.8449
423.8454	108.1567
424.0109	106.1411
424.1763	110.6217
424.3418	106.5274
424.5072	106.397
424.6726	110.0109
424.838	110.6335
425.0035	110.4337
425.1689	104.2936
425.3343	106.381
425.4997	109.9792
425.6651	113.951
425.8305	114.1993
425.9959	110.6218
426.1613	108.2444
426.3267	116.8562
426.492	117.5002
426.6574	114.8877
426.8228	108.7786
426.9881	107.0204
427.1534	103.1065
427.3188	101.0644
427.4841	108.4466
427.6495	108.6155
427.8148	113.3203
427.9801	113.903
428.1454	112.4199
428.3107	115.0744
428.476	118.6679
428.6414	114.7665
428.8066	109.9408
428.9719	109.4158
429.1372	113.4488
429.3025	108.0172
429.4678	108.1288
429.633	104.7617
429.7983	97.52194
429.9636	97.30453
430.1288	93.60213
430.294	89.31222
430.4593	90.17088
430.6245	95.0995
430.7897	91.75716
430.955	93.87726
431.1202	94.3295
431.2854	98.22636
431.4506	106.7995
431.6158	114.472
431.781	124.6729
431.9462	126.2932
432.1114	122.289
432.2766	108.7678
432.4417	104.9878
432.6069	111.3006
432.772	113.7666
432.9372	112.1064
433.1024	117.0191
433.2675	120.4286
433.4326	129.0086
433.5977	117.1668
433.7629	114.3034
433.928	104.0599
434.0931	97.17406
434.2582	106.0405
434.4233	117.6649
434.5884	120.543
434.7535	126.0311
434.9186	121.2532
435.0837	121.9437
435.2488	120.2299
435.4138	115.1195
435.5789	121.5152
435.744	129.3179
435.909	124.4983
436.0741	130.5779
436.2391	133.8358
436.4042	132.4551
436.5692	124.671
436.7342	128.0283
436.8992	131.3743
437.0643	133.4596
437.2293	135.4147
437.3943	129.0288
437.5593	127.6867
437.7243	132.814
437.8893	129.559
438.0542	132.0306
438.2192	122.2369
438.3842	109.8939
438.5491	118.6013
438.7141	125.8708
438.8791	129.5759
439.044	130.2816
439.209	128.7578
439.3739	126.6408
439.5388	134.3539
439.7037	138.7257
439.8687	131.9
440.0336	127.704
440.1985	129.5059
440.3634	136.1074
440.5283	129.3046
440.6932	133.5714
440.8581	139.6987
441.0229	143.2729
441.1878	141.3616
441.3527	148.459
441.5175	143.607
441.6824	138.2303
441.8472	144.5035
442.0121	146.9707
442.1769	148.5845
442.3418	144.4327
442.5066	144.8695
442.6714	148.4487
442.8362	147.2808
443.001	145.7741
443.1659	149.358
443.3307	145.6499
443.4955	142.8301
443.6602	137.4654
443.825	145.522
443.9898	145.0818
444.1546	145.3175
444.3193	145.0982
444.4841	143.225
444.6488	146.8025
444.8136	147.5628
444.9783	148.6194
445.1431	149.5171
445.3078	147.9833
445.4725	143.6037
445.6372	141.6992
445.802	135.2078
445.9667	138.4437
446.1314	141.258
446.2961	139.8358
446.4608	138.1848
446.6255	145.5319
446.7901	149.7582
446.9548	148.6052
447.1195	152.7861
447.2841	153.7153
447.4488	150.5192
447.6134	152.4076
447.7781	154.2332
447.9427	155.1026
448.1074	149.3352
448.272	149.4407
448.4366	155.7399
448.6012	157.8087
448.7658	156.9443
448.9305	154.2832
449.095	150.2726
449.2596	150.5053
449.4242	151.2325
449.5888	152.983
449.7534	158.3916
449.9179	159.6096
450.0825	155.9198
450.2471	156.5536
450.4116	156.2788
450.5762	161.8917
450.7407	156.731
450.9052	170.7415
451.0698	159.7917
451.2343	158.147
451.3988	159.3595
451.5633	160.4122
451.7278	162.7746
451.8923	165.8101
452.0568	162.3048
452.2213	165.8082
452.3858	163.0307
452.5503	162.8945
452.7148	154.6853
452.8792	148.7399
453.0437	153.9007
453.2081	157.6605
453.3726	154.0257
453.537	164.1086
453.7015	167.941
453.8659	163.0455
454.0303	163.5331
454.1947	165.0109
454.3592	167.5073
454.5236	166.7005
454.688	160.8708
454.8524	161.0433
455.0168	160.0456
455.1811	163.8271
455.3455	168.5168
455.5099	167.9498
455.6743	166.8228
455.8386	164.3615
456.003	174.7585
456.1673	178.6515
456.3317	170.6366
456.496	168.2531
456.6603	172.2556
456.8246	180.1808
456.989	173.2609
457.1533	174.1046
457.3176	174.0885
457.4819	177.8752
457.6462	176.0232
457.8105	164.4701
457.9748	167.9857
458.1391	175.9674
458.3033	164.6282
458.4676	163.1247
458.6319	169.9895
458.7961	178.8269
458.9604	176.3699
459.1246	173.9574
459.2888	172.7101
459.4531	167.5489
459.6173	171.5948
459.7815	177.6014
459.9457	171.3726
460.11	164.6141
460.2741	174.1592
460.4384	179.2265
460.6025	178.0675
460.7667	183.4731
460.9309	183.3625
461.0951	178.995
461.2592	172.7459
461.4234	177.8963
461.5876	179.5608
461.7517	176.0751
461.9159	175.5117
462.08	183.0666
462.2441	180.3412
462.4082	183.76
462.5724	175.5575
462.7365	176.2855
462.9006	178.2156
463.0647	181.2074
463.2288	172.3739
463.3929	177.1818
463.557	179.4572
463.721	178.4092
463.8851	173.4047
464.0492	172.2367
464.2132	173.4723
464.3773	180.7789
464.5414	179.6615
464.7054	174.4495
464.8694	168.1641
465.0334	170.249
465.1975	173.5689
465.3615	178.4534
465.5255	178.8935
465.6895	178.3335
465.8535	177.6113
466.0175	184.7336
466.1815	183.4656
466.3455	180.6073
466.5095	181.779
466.6734	167.7859
466.8374	168.2647
467.0014	170.478
467.1653	183.2352
467.3293	180.3322
467.4932	178.6339
467.6571	182.7798
467.8211	177.9314
467.985	179.422
468.1489	181.518
468.3128	183.1372
468.4767	182.9857
468.6406	179.8156
468.8045	178.754
468.9684	184.0846
469.1323	186.7639
469.2962	182.0305
469.46	180.2162
469.6239	190.3721
469.7878	183.1604
469.9516	184.0399
470.1154	179.7594
470.2793	174.9515
470.4431	182.368
470.607	186.4179
470.7708	183.1092
470.9346	187.4815
471.0984	180.2115
471.2622	183.3089
471.426	188.1893
471.5898	191.517
471.7536	192.9159
471.9174	199.3872
472.0811	189.9256
472.2449	190.7382
472.4087	191.3828
472.5724	191.6152
472.7362	190.3397
472.8999	186.828
473.0637	185.3161
473.2274	190.3469
473.3911	188.6601
473.5548	192.4467
473.7185	190.5691
473.8822	189.8899
474.0459	193.1252
474.2096	197.5231
474.3733	199.3827
474.537	192.2388
474.7007	199.5935
474.8643	201.3375
475.028	201.5978
475.1917	191.2125
475.3553	190.0708
475.519	189.8602
475.6826	190.4627
475.8463	198.8826
476.0099	195.8518
476.1735	194.2662
476.3371	191.6605
476.5007	185.669
476.6643	189.9258
476.8279	194.1066
476.9915	196.1684
477.1551	196.9814
477.3187	199.1362
477.4823	191.475
477.6458	199.1284
477.8094	195.6466
477.9729	192.9909
478.1365	189.7574
478.3	194.3413
478.4636	195.4671
478.6271	190.4349
478.7906	191.4693
478.9541	191.3481
479.1176	201.2206
479.2812	196.4924
479.4447	200.0673
479.6082	193.331
479.7716	199.9211
479.9351	192.6489
480.0986	192.9345
480.2621	199.3763
480.4255	195.8238
480.589	190.5069
480.7524	195.8413
480.9159	192.0175
481.0793	195.7603
481.2428	195.4634
481.4062	195.6766
481.5696	197.9894
481.733	202.5539
481.8964	198.9702
482.0598	198.3089
482.2232	195.6938
482.3866	190.5744
482.55	193.2738
482.7134	194.1532
482.8768	194.09
483.0401	191.9039
483.2035	190.6767
483.3668	192.9615
483.5302	195.8497
483.6935	197.5121
483.8568	190.7447
484.0202	182.9709
484.1835	189.9505
484.3468	185.5572
484.5101	189.0066
484.6734	195.2079
484.8367	194.5547
485	196.7642
485.1633	197.9822
485.3266	190.1977
485.4899	192.0195
485.6531	182.7726
485.8164	184.4467
485.9796	175.0446
486.1429	159.9792
486.3061	152.4522
486.4694	169.732
486.6326	188.3521
486.7958	186.3419
486.959	179.762
487.1223	186.2989
487.2855	189.7601
487.4486	191.0518
487.6118	198.1357
487.775	196.0213
487.9382	200.0555
488.1014	199.6351
488.2646	198.9425
488.4277	195.8222
488.5909	197.9089
488.754	196.9324
488.9171	191.4154
489.0803	188.782
489.2434	193.3975
489.4066	198.1694
489.5697	208.6887
489.7328	212.6453
489.8959	213.4065
490.059	210.042
490.2221	197.4352
490.3852	201.8566
490.5482	204.5843
490.7113	200.2597
490.8744	202.2003
491.0374	206.1779
491.2005	206.3312
491.3636	205.7103
491.5266	208.132
491.6896	208.835
491.8527	201.9062
492.0157	189.3967
492.1787	198.0296
492.3417	197.2489
492.5047	202.3674
492.6677	205.4304
492.8307	208.4721
492.9937	216.0334
493.1567	214.7601
493.3196	209.5903
493.4826	204.2697
493.6456	198.1145
493.8085	198.0871
493.9715	197.8651
494.1344	202.5766
494.2974	211.6745
494.4603	207.545
494.6232	202.0834
494.7861	204.8786
494.949	210.6695
495.1119	212.2738
495.2748	215.2709
495.4377	212.9846
495.6006	198.705
495.7635	198.5846
495.9264	199.5273
496.0892	207.2162
496.2521	215.7028
496.4149	218.8969
496.5778	216.3069
496.7407	210.1304
496.9035	211.9272
497.0663	205.0025
497.2291	217.0162
497.3919	217.2854
497.5547	221.4775
497.7176	221.6351
497.8804	212.8824
498.0432	205.6708
498.2059	197.2585
498.3687	194.7062
498.5315	201.5468
498.6942	206.8298
498.857	206.1385
499.0198	215.4947
499.1825	213.494
499.3452	204.9716
499.508	212.7845
499.6707	216.4485
499.8334	216.053
499.9962	207.2974
500.1589	201.7188
500.3216	204.6621
500.4843	204.2025
500.6469	206.3006
500.8096	210.7146
500.9723	209.1021
501.135	210.2955
501.2976	210.2798
501.4603	197.5947
501.623	201.4762
501.7856	207.0262
501.9482	205.5522
502.1109	203.356
502.2735	201.1288
502.4361	201.5555
502.5987	206.9519
502.7614	208.3087
502.924	207.9801
503.0865	216.4521
503.2491	206.9925
503.4117	210.1493
503.5743	214.0924
503.7368	209.3289
503.8994	194.6789
504.062	202.3734
504.2245	201.9016
504.3871	202.3568
504.5496	212.7132
504.7121	219.2951
504.8746	209.5869
505.0372	205.439
505.1997	215.9575
505.3622	219.3204
505.5247	213.7777
505.6872	209.8628
505.8497	217.3362
506.0121	217.4704
506.1746	224.9105
506.3371	226.5418
506.4995	215.4608
506.662	206.1877
506.8244	216.7209
506.9869	223.5611
507.1493	221.9789
507.3117	217.1795
507.4742	212.2036
507.6366	218.0155
507.799	215.0421
507.9614	215.1181
508.1238	210.96
508.2862	217.2487
508.4485	217.6629
508.6109	217.4004
508.7733	224.1624
508.9357	224.2025
509.098	221.1441
509.2604	226.1481
509.4227	216.7901
509.5851	227.9816
509.7474	211.2743
509.9097	210.0257
510.072	217.2085
510.2343	228.9303
510.3966	228.091
510.5589	224.5809
510.7212	218.2869
510.8835	217.0282
511.0458	216.1762
511.2081	214.6724
511.3703	224.2804
511.5326	225.9799
511.6949	223.5924
511.8571	226.8927
512.0193	232.1643
512.1816	227.6572
512.3438	220.819
512.506	212.7874
512.6682	217.7532
512.8304	221.1957
512.9926	221.5528
513.1548	225.2601
513.317	219.1496
513.4792	225.6898
513.6414	218.5544
513.8035	214.1171
513.9657	210.6468
514.1279	207.0186
514.29	219.7101
514.4521	225.2969
514.6143	220.6682
514.7764	214.0879
514.9385	219.2314
515.1006	218.7654
515.2628	222.3542
515.4249	221.7809
515.587	217.414
515.7491	217.746
515.9111	228.1263
516.0732	223.7945
516.2353	212.8342
516.3973	211.0138
