SPECTRUM DATA FILE
SpectrumCount:	1
PixelCount:	3648
UserName:	ToughBook User
SampleName:	
LightSource:	
Comments:	
DeviceName:	Qwave
DeviceManufacturer:	Broadcom
DeviceSerialNo:	11311

Name:	last spectrum
Date:	2024-05-02T14:50:32.7525205+02:00
ExposureTime:	0.02
TemporalAvg:	1
IntensityUnit:	normalizedCounts
CCDLoadLevel:	0.05456034
Temperature:	32.58951
DiagramColor:	200
ProcessingSteps:	335

Wavelength [nm]	Intensity1
334.421	14.39721
334.5891	16.98413
334.7573	18.19491
334.9254	16.82102
335.0935	19.16657
335.2616	19.11694
335.4297	17.61356
335.5978	17.92433
335.7659	16.5047
335.934	18.95044
336.1021	21.27877
336.2701	15.06086
336.4382	17.53545
336.6063	13.57017
336.7744	16.61202
336.9424	15.70707
337.1105	12.84387
337.2785	17.17956
337.4466	16.62491
337.6146	18.0789
337.7827	23.39391
337.9507	15.74035
338.1187	18.38074
338.2867	17.39691
338.4548	20.82797
338.6228	19.80337
338.7908	19.99614
338.9588	21.20926
339.1268	15.04032
339.2948	18.13086
339.4628	18.21002
339.6308	15.97934
339.7988	21.22359
339.9667	18.87694
340.1347	19.39242
340.3027	15.79575
340.4707	20.56237
340.6386	20.19967
340.8066	19.22852
340.9745	19.51919
341.1425	15.72836
341.3104	16.06605
341.4784	16.39291
341.6463	19.76817
341.8142	21.74722
341.9821	19.01759
342.1501	17.61189
342.318	13.95721
342.4859	19.65335
342.6538	19.99561
342.8217	24.30876
342.9896	23.11668
343.1575	18.73196
343.3254	21.39979
343.4933	24.16362
343.6612	20.83992
343.829	19.56787
343.9969	17.63302
344.1648	19.98834
344.3326	17.04496
344.5005	24.56695
344.6683	26.05717
344.8362	24.48726
345.004	19.6877
345.1719	22.4204
345.3397	17.89184
345.5075	17.33928
345.6754	17.06467
345.8432	17.84718
346.011	17.35279
346.1788	20.90922
346.3466	19.48068
346.5144	24.87368
346.6822	21.70062
346.85	18.52464
347.0178	20.07413
347.1856	21.92985
347.3534	23.38926
347.5211	21.40515
347.6889	17.67123
347.8567	20.64705
348.0244	23.49015
348.1922	18.0742
348.3599	16.72762
348.5277	20.55366
348.6954	14.90616
348.8632	17.99143
349.0309	20.95315
349.1986	16.08198
349.3663	18.04691
349.5341	20.33791
349.7018	20.38543
349.8695	20.54548
350.0372	19.61553
350.2049	20.8485
350.3726	24.17814
350.5403	23.72556
350.7079	22.14267
350.8756	17.14557
351.0433	19.67785
351.211	26.56497
351.3786	19.75846
351.5463	21.48991
351.714	22.98026
351.8816	24.52749
352.0493	23.80437
352.2169	17.19696
352.3846	22.21651
352.5522	24.68727
352.7198	23.71014
352.8875	26.72648
353.0551	19.26953
353.2227	19.82791
353.3903	23.29685
353.5579	21.30058
353.7255	25.15019
353.8931	24.50413
354.0607	22.42901
354.2283	20.6246
354.3958	21.73895
354.5634	27.84152
354.731	22.84445
354.8986	23.63706
355.0661	26.49768
355.2337	25.01567
355.4012	22.90815
355.5688	25.23792
355.7363	20.66787
355.9039	23.11163
356.0714	22.35724
356.239	25.29578
356.4065	21.10619
356.574	19.26849
356.7415	25.04048
356.909	21.93398
357.0765	21.33814
357.244	23.71707
357.4115	18.66381
357.579	19.35539
357.7465	21.59064
357.914	24.26483
358.0815	20.94613
358.249	16.42611
358.4164	18.21803
358.5839	21.51099
358.7513	18.66456
358.9188	20.74342
359.0862	24.86731
359.2537	23.29333
359.4211	23.19886
359.5886	25.498
359.756	28.30022
359.9234	27.74843
360.0909	29.35584
360.2583	24.54947
360.4257	26.31186
360.5931	27.12019
360.7605	22.22826
360.9279	24.34154
361.0953	30.4865
361.2627	27.52104
361.4301	26.15498
361.5974	23.71198
361.7648	25.6498
361.9322	25.75441
362.0995	30.16761
362.2669	27.11946
362.4343	26.66433
362.6016	34.0916
362.769	31.34732
362.9363	27.75977
363.1036	25.86241
363.271	26.65241
363.4383	30.51118
363.6056	25.30703
363.7729	25.23515
363.9402	27.96629
364.1075	30.97545
364.2748	33.10519
364.4421	28.89933
364.6094	25.97993
364.7767	23.2172
364.944	30.25393
365.1113	33.28238
365.2786	30.97321
365.4458	25.86696
365.6131	31.83782
365.7803	30.40049
365.9476	32.2002
366.1148	30.49502
366.2821	33.09611
366.4493	30.0475
366.6166	35.67726
366.7838	33.23444
366.951	30.06614
367.1182	32.69975
367.2855	30.81305
367.4527	25.78109
367.6199	25.77877
367.7871	27.16125
367.9543	28.07325
368.1215	28.26367
368.2886	27.27229
368.4558	27.9683
368.623	25.95986
368.7902	31.32216
368.9573	32.02911
369.1245	29.86104
369.2917	25.21786
369.4588	30.22283
369.6259	30.76941
369.7931	29.32713
369.9602	32.19022
370.1274	31.34743
370.2945	31.4872
370.4616	29.65628
370.6287	28.38458
370.7958	29.21706
370.963	32.89741
371.1301	33.25669
371.2971	31.54122
371.4643	34.68747
371.6313	31.56877
371.7984	32.51997
371.9655	28.11445
372.1326	29.81278
372.2997	26.52147
372.4667	36.70872
372.6338	36.8763
372.8008	36.07684
372.9679	33.86766
373.1349	38.51371
373.3019	25.06423
373.469	26.16491
373.636	29.54977
373.803	28.83997
373.9701	37.29586
374.1371	32.79368
374.3041	29.4507
374.4711	30.17217
374.6381	26.08354
374.8051	26.2846
374.9721	34.28104
375.1391	32.38272
375.3061	34.34726
375.473	33.04827
375.64	32.30938
375.8069	31.75428
375.9739	29.85899
376.1409	32.44323
376.3078	34.15848
376.4748	36.52811
376.6417	32.01977
376.8087	36.0707
376.9756	34.78925
377.1425	37.06916
377.3094	31.84278
377.4763	31.0324
377.6432	33.70839
377.8102	42.60767
377.9771	37.85725
378.144	42.87478
378.3109	39.68718
378.4777	38.62034
378.6446	37.22044
378.8115	39.28808
378.9784	37.47985
379.1452	34.27606
379.3121	35.94974
379.4789	37.00631
379.6458	34.14449
379.8127	35.22419
379.9795	31.65626
380.1463	33.36825
380.3131	43.16055
380.48	40.39169
380.6468	39.56057
380.8136	43.16475
380.9804	39.1204
381.1472	41.91598
381.314	40.29018
381.4808	35.93317
381.6476	36.74074
381.8144	33.44503
381.9812	38.09914
382.148	35.80116
382.3147	28.81617
382.4815	35.18152
382.6483	32.02444
382.815	29.99025
382.9818	30.44732
383.1485	28.6668
383.3153	31.71117
383.482	31.39892
383.6487	31.52217
383.8155	30.23341
383.9822	32.45959
384.1489	34.35506
384.3156	41.81044
384.4823	44.9477
384.649	42.65491
384.8157	38.51381
384.9824	41.99166
385.1491	39.82385
385.3158	41.25179
385.4825	39.24568
385.6491	33.87688
385.8158	33.54221
385.9825	33.31374
386.1491	39.07728
386.3157	39.68549
386.4824	40.29036
386.649	47.45917
386.8157	44.32714
386.9823	40.04794
387.1489	33.7745
387.3156	39.05363
387.4821	40.15137
387.6488	38.55407
387.8154	42.29247
387.982	39.93248
388.1486	39.99207
388.3152	39.0097
388.4818	42.29551
388.6483	45.72544
388.8149	42.36032
388.9815	40.10588
389.148	44.75512
389.3146	43.79636
389.4811	47.32936
389.6477	49.74191
389.8142	51.84933
389.9808	46.43367
390.1473	42.81858
390.3138	41.89232
390.4804	43.06325
390.6469	44.63042
390.8134	47.1181
390.9799	47.85251
391.1464	50.29568
391.3129	51.984
391.4794	47.25409
391.6459	44.4977
391.8124	41.75101
391.9789	40.58973
392.1453	45.07898
392.3118	46.43527
392.4782	42.78821
392.6447	44.35448
392.8112	43.79965
392.9776	39.87527
393.144	34.36842
393.3105	30.62527
393.4769	35.08916
393.6433	34.552
393.8098	35.29897
393.9762	39.81513
394.1426	40.68639
394.309	44.77849
394.4754	50.40052
394.6418	53.95274
394.8082	51.75238
394.9746	49.16291
395.141	49.41073
395.3073	51.28315
395.4737	50.26799
395.64	51.88063
395.8064	53.72468
395.9728	49.11255
396.1391	46.24698
396.3055	41.99488
396.4718	44.42573
396.6381	39.89834
396.8045	36.18422
396.9708	35.11748
397.1371	40.3315
397.3034	41.47276
397.4697	45.92943
397.636	47.79814
397.8023	49.30423
397.9686	52.74235
398.1349	64.26739
398.3012	59.38046
398.4675	58.74327
398.6337	58.25548
398.8	60.88829
398.9662	60.15671
399.1325	64.84909
399.2988	61.73893
399.465	62.15147
399.6313	60.03835
399.7975	63.63682
399.9637	61.75974
400.1299	58.26127
400.2961	68.05273
400.4624	60.84489
400.6286	58.71407
400.7948	61.49906
400.961	69.36412
401.1272	66.56017
401.2934	65.58121
401.4595	67.10773
401.6257	64.36051
401.7919	66.92166
401.9581	68.18207
402.1242	60.45753
402.2904	64.64944
402.4565	62.63653
402.6227	66.50372
402.7888	65.40012
402.955	65.99952
403.1211	58.70694
403.2872	62.81553
403.4533	61.27422
403.6194	63.78738
403.7856	70.70782
403.9517	70.94146
404.1177	69.45964
404.2838	68.74666
404.4499	59.62037
404.616	54.7834
404.7821	59.32571
404.9482	66.33463
405.1142	66.97063
405.2803	64.83854
405.4464	61.7405
405.6124	63.40825
405.7784	65.88171
405.9445	65.14105
406.1105	61.14418
406.2766	68.24203
406.4426	69.61089
406.6086	60.9391
406.7746	62.63623
406.9406	71.09284
407.1066	69.68632
407.2726	69.40636
407.4386	67.95105
407.6046	70.90992
407.7706	68.5473
407.9366	70.81716
408.1025	78.63307
408.2685	78.71077
408.4344	83.64877
408.6004	81.76423
408.7664	77.74792
408.9323	77.24245
409.0983	83.03962
409.2642	80.04231
409.4301	79.24138
409.596	75.06087
409.762	72.16467
409.9279	70.11462
410.0938	68.98573
410.2597	71.04801
410.4256	70.13161
410.5915	70.92626
410.7574	73.08617
410.9232	74.88658
411.0891	75.17989
411.255	76.85574
411.4209	78.0672
411.5867	79.3806
411.7526	77.05965
411.9184	80.63443
412.0843	84.94148
412.2501	80.45039
412.4159	91.2406
412.5818	76.7824
412.7476	80.27785
412.9134	80.45735
413.0792	78.46425
413.245	67.78265
413.4108	77.73119
413.5766	82.00714
413.7424	79.47289
413.9082	82.00623
414.074	88.55627
414.2397	82.02072
414.4055	80.21862
414.5713	78.8555
414.737	80.85817
414.9028	83.71661
415.0685	79.68221
415.2343	80.31155
415.4	79.4815
415.5658	79.2655
415.7315	76.97497
415.8972	81.03401
416.0629	87.10434
416.2286	87.12418
416.3943	80.01109
416.56	77.4838
416.7257	83.65308
416.8914	85.03071
417.0571	76.24699
417.2228	75.50445
417.3884	77.95834
417.5541	78.38727
417.7198	84.23161
417.8854	81.61243
418.0511	77.84096
418.2167	85.90186
418.3824	82.55442
418.548	83.13932
418.7136	80.67192
418.8792	79.865
419.0449	88.4306
419.2105	85.40435
419.3761	84.92645
419.5417	84.58088
419.7073	75.01492
419.8729	76.71135
420.0385	75.73988
420.204	79.18121
420.3696	84.9464
420.5352	91.14446
420.7007	89.71117
420.8663	91.12161
421.0319	89.50945
421.1974	89.92525
421.3629	93.5035
421.5285	90.35957
421.694	88.68854
421.8595	88.93684
422.0251	94.96923
422.1906	91.46856
422.3561	85.08889
422.5216	78.34728
422.6871	79.6388
422.8526	84.23908
423.0181	88.9017
423.1835	93.03995
423.349	91.66493
423.5145	90.41991
423.68	87.42721
423.8454	90.72463
424.0109	91.50706
424.1763	89.82022
424.3418	92.7453
424.5072	93.60803
424.6726	91.23603
424.838	94.08621
425.0035	89.92236
425.1689	91.92019
425.3343	88.4913
425.4997	93.75224
425.6651	95.98272
425.8305	89.6917
425.9959	88.92139
426.1613	88.00317
426.3267	94.65701
426.492	100.1723
426.6574	100.3533
426.8228	96.22707
426.9881	83.98173
427.1534	86.69037
427.3188	81.26455
427.4841	90.32375
427.6495	99.00926
427.8148	95.8925
427.9801	91.93288
428.1454	97.6137
428.3107	97.47658
428.476	96.15134
428.6414	91.69002
428.8066	85.56053
428.9719	88.61742
429.1372	89.55122
429.3025	90.96451
429.4678	90.65092
429.633	88.3168
429.7983	88.49852
429.9636	79.29449
430.1288	71.7616
430.294	66.87179
430.4593	69.38281
430.6245	69.25251
430.7897	72.61862
430.955	81.0445
431.1202	83.74339
431.2854	87.77995
431.4506	94.20216
431.6158	94.44884
431.781	103.6017
431.9462	106.0152
432.1114	100.9319
432.2766	93.16851
432.4417	87.08973
432.6069	84.56281
432.772	95.54237
432.9372	95.67047
433.1024	107.9371
433.2675	107.5414
433.4326	102.734
433.5977	105.3789
433.7629	93.77814
433.928	86.20919
434.0931	83.40723
434.2582	88.24317
434.4233	98.71812
434.5884	105.4654
434.7535	107.9865
434.9186	109.3884
435.0837	102.4494
435.2488	96.29969
435.4138	96.84039
435.5789	101.2579
435.744	105.9835
435.909	106.3559
436.0741	108.8519
436.2391	109.7712
436.4042	113.0806
436.5692	111.3214
436.7342	108.4044
436.8992	111.3939
437.0643	111.4883
437.2293	110.2514
437.3943	109.7828
437.5593	108.0632
437.7243	109.7986
437.8893	106.7659
438.0542	111.1179
438.2192	108.3966
438.3842	98.96683
438.5491	99.77792
438.7141	106.7997
438.8791	116.6547
439.044	108.9724
439.209	114.9416
439.3739	116.6189
439.5388	117.8035
439.7037	121.1075
439.8687	116.1524
440.0336	118.0797
440.1985	113.5197
440.3634	113.7679
440.5283	111.6441
440.6932	110.0689
440.8581	113.1633
441.0229	121.7709
441.1878	122.8819
441.3527	120.4256
441.5175	116.6448
441.6824	115.0203
441.8472	121.0115
442.0121	122.7244
442.1769	131.51
442.3418	121.0097
442.5066	123.0501
442.6714	125.446
442.8362	120.5357
443.001	121.7376
443.1659	116.8132
443.3307	120.5086
443.4955	119.8929
443.6602	121.2696
443.825	124.4509
443.9898	127.9657
444.1546	121.3483
444.3193	118.6006
444.4841	122.8782
444.6488	123.9674
444.8136	126.1168
444.9783	127.1879
445.1431	127.4726
445.3078	127.1583
445.4725	121.301
445.6372	114.15
445.802	118.5913
445.9667	117.0784
446.1314	113.3935
446.2961	115.2374
446.4608	122.2889
446.6255	123.0758
446.7901	124.94
446.9548	120.001
447.1195	131.2908
447.2841	132.4624
447.4488	128.1979
447.6134	135.082
447.7781	134.6248
447.9427	129.8967
448.1074	130.2729
448.272	128.0195
448.4366	130.768
448.6012	134.3523
448.7658	134.5177
448.9305	130.3177
449.095	129.9776
449.2596	128.222
449.4242	133.9821
449.5888	129.834
449.7534	126.7664
449.9179	129.6812
450.0825	133.5816
450.2471	140.2761
450.4116	144.8667
450.5762	138.7562
450.7407	137.7272
450.9052	146.8503
451.0698	150.2366
451.2343	148.1016
451.3988	142.2218
451.5633	139.9053
451.7278	136.7211
451.8923	138.148
452.0568	141.9865
452.2213	140.5312
452.3858	140.1503
452.5503	134.5081
452.7148	133.8037
452.8792	129.8099
453.0437	125.0249
453.2081	134.3489
453.3726	135.3528
453.537	139.1388
453.7015	139.5027
453.8659	147.248
454.0303	143.8591
454.1947	138.5276
454.3592	139.3113
454.5236	147.097
454.688	139.9826
454.8524	133.0287
455.0168	132.7695
455.1811	141.6015
455.3455	141.9173
455.5099	146.5445
455.6743	144.1398
455.8386	144.8313
456.003	146.9984
456.1673	146.8895
456.3317	142.5668
456.496	141.58
456.6603	145.5423
456.8246	149.5537
456.989	147.431
457.1533	150.9138
457.3176	151.4115
457.4819	150.3584
457.6462	147.3484
457.8105	148.1767
457.9748	145.5059
458.1391	146.7098
458.3033	142.8257
458.4676	142.291
458.6319	150.9494
458.7961	145.4171
458.9604	146.3314
459.1246	146.9691
459.2888	146.691
459.4531	152.6679
459.6173	152.6965
459.7815	146.9932
459.9457	145.1527
460.11	149.4619
460.2741	151.0562
460.4384	147.9308
460.6025	147.9789
460.7667	147.9715
460.9309	151.7105
461.0951	149.3725
461.2592	145.0316
461.4234	147.1666
461.5876	152.427
461.7517	156.2954
461.9159	151.3369
462.08	153.1535
462.2441	155.6713
462.4082	154.555
462.5724	153.394
462.7365	157.0362
462.9006	155.6244
463.0647	152.2784
463.2288	147.1298
463.3929	146.3436
463.557	152.2634
463.721	148.5373
463.8851	148.3713
464.0492	150.2218
464.2132	153.5087
464.3773	149.1176
464.5414	145.8124
464.7054	146.3995
464.8694	149.7616
465.0334	146.7335
465.1975	145.8011
465.3615	154.4839
465.5255	151.6197
465.6895	157.987
465.8535	157.7547
466.0175	158.2103
466.1815	157.0466
466.3455	157.1672
466.5095	151.8457
466.6734	140.8243
466.8374	142.0267
467.0014	148.4178
467.1653	150.6606
467.3293	150.4448
467.4932	153.8212
467.6571	150.3858
467.8211	152.1354
467.985	150.7662
468.1489	146.3222
468.3128	148.5291
468.4767	156.1196
468.6406	156.1991
468.8045	161.2371
468.9684	160.744
469.1323	157.6761
469.2962	154.0789
469.46	157.8319
469.6239	159.1303
469.7878	152.5039
469.9516	156.9674
470.1154	156.7635
470.2793	149.461
470.4431	152.0331
470.607	153.6413
470.7708	153.7488
470.9346	155.0218
471.0984	157.8972
471.2622	161.1444
471.426	154.2876
471.5898	156.1648
471.7536	159.4575
471.9174	169.4276
472.0811	168.665
472.2449	167.7322
472.4087	166.6638
472.5724	166.5443
472.7362	165.6258
472.8999	162.5635
473.0637	154.4635
473.2274	161.6806
473.3911	157.8521
473.5548	160.386
473.7185	163.6274
473.8822	163.0066
474.0459	160.9422
474.2096	166.0442
474.3733	168.08
474.537	169.8542
474.7007	165.6762
474.8643	166.8938
475.028	171.129
475.1917	162.0545
475.3553	169.2646
475.519	163.6605
475.6826	159.8558
475.8463	161.4328
476.0099	159.6078
476.1735	163.6551
476.3371	162.2911
476.5007	156.6062
476.6643	162.1211
476.8279	160.7999
476.9915	156.3893
477.1551	165.985
477.3187	164.3169
477.4823	163.6967
477.6458	167.4502
477.8094	166.8338
477.9729	168.7715
478.1365	167.5921
478.3	159.3528
478.4636	170.7612
478.6271	160.6507
478.7906	159.7333
478.9541	165.6614
479.1176	159.9341
479.2812	167.7395
479.4447	171.6805
479.6082	174.0012
479.7716	161.9658
479.9351	157.539
480.0986	163.4907
480.2621	168.4268
480.4255	169.9321
480.589	167.9116
480.7524	166.6801
480.9159	160.6106
481.0793	162.6213
481.2428	161.736
481.4062	173.5941
481.5696	166.9373
481.733	166.3827
481.8964	171.1928
482.0598	163.7847
482.2232	165.23
482.3866	166.3336
482.55	161.6264
482.7134	166.0048
482.8768	162.7416
483.0401	165.1238
483.2035	167.1261
483.3668	166.5945
483.5302	166.2032
483.6935	162.8198
483.8568	160.512
484.0202	159.8991
484.1835	165.9255
484.3468	169.3732
484.5101	170.0634
484.6734	162.1521
484.8367	168.0979
485	168.5885
485.1633	167.6886
485.3266	171.1791
485.4899	157.8229
485.6531	150.6649
485.8164	149.1415
485.9796	135.6674
486.1429	129.453
486.3061	135.1476
486.4694	135.8994
486.6326	148.4766
486.7958	154.8702
486.959	154.1949
487.1223	150.8801
487.2855	150.8855
487.4486	162.432
487.6118	161.264
487.775	166.2015
487.9382	169.8452
488.1014	170.2113
488.2646	172.4115
488.4277	166.6451
488.5909	164.3983
488.754	159.2977
488.9171	156.1494
489.0803	156.4272
489.2434	156.7805
489.4066	170.8869
489.5697	177.5076
489.7328	179.3778
489.8959	180.1685
490.059	175.5332
490.2221	176.8432
490.3852	181.6392
490.5482	176.1919
490.7113	170.707
490.8744	168.9516
491.0374	166.9669
491.2005	163.4792
491.3636	172.0396
491.5266	178.4357
491.6896	171.7339
491.8527	159.6063
492.0157	149.3923
492.1787	162.682
492.3417	164.9956
492.5047	171.6325
492.6677	176.1365
492.8307	179.0596
492.9937	177.2773
493.1567	169.5739
493.3196	173.2081
493.4826	171.1957
493.6456	168.4347
493.8085	161.2619
493.9715	166.7061
494.1344	170.8044
494.2974	173.3881
494.4603	179.0698
494.6232	173.321
494.7861	176.7687
494.949	178.8138
495.1119	174.107
495.2748	173.6786
495.4377	176.8656
495.6006	174.9249
495.7635	168.6569
495.9264	162.4679
496.0892	174.1208
496.2521	177.712
496.4149	178.6539
496.5778	180.7748
496.7407	179.7618
496.9035	177.3068
497.0663	175.7512
497.2291	171.6516
497.3919	180.5118
497.5547	179.9837
497.7176	177.1565
497.8804	174.8398
498.0432	173.3228
498.2059	166.6541
498.3687	166.2286
498.5315	175.9023
498.6942	170.2758
498.857	169.0612
499.0198	179.0852
499.1825	175.5604
499.3452	177.4235
499.508	178.4447
499.6707	179.6858
499.8334	183.6151
499.9962	178.636
500.1589	174.9258
500.3216	171.4859
500.4843	170.7091
500.6469	172.2034
500.8096	169.3587
500.9723	172.3695
501.135	171.9094
501.2976	173.5447
501.4603	170.8638
501.623	164.9592
501.7856	168.2446
501.9482	167.1366
502.1109	172.0529
502.2735	168.6305
502.4361	174.63
502.5987	173.8675
502.7614	174.4985
502.924	172.6967
503.0865	175.5415
503.2491	180.7701
503.4117	174.226
503.5743	176.3086
503.7368	177.5284
503.8994	173.9599
504.062	174.3121
504.2245	172.968
504.3871	182.6651
504.5496	177.1885
504.7121	185.6215
504.8746	181.3295
505.0372	172.083
505.1997	177.0321
505.3622	185.8168
505.5247	178.3573
505.6872	183.6841
505.8497	179.0741
506.0121	181.4218
506.1746	186.2392
506.3371	186.7806
506.4995	187.379
506.662	180.4894
506.8244	180.4109
506.9869	185.5928
507.1493	179.2038
507.3117	179.0936
507.4742	178.3936
507.6366	179.6539
507.799	175.8286
507.9614	173.4713
508.1238	178.5031
508.2862	180.5235
508.4485	178.1073
508.6109	180.1237
508.7733	182.8513
508.9357	188.7292
509.098	191.3353
509.2604	193.1984
509.4227	191.9992
509.5851	189.2694
509.7474	187.5808
509.9097	184.9728
510.072	186.5033
510.2343	183.9741
510.3966	185.9556
510.5589	182.9543
510.7212	183.5925
510.8835	175.3535
511.0458	177.5753
511.2081	182.5039
511.3703	188.3222
511.5326	191.851
511.6949	190.9755
511.8571	190.3802
512.0193	189.8935
512.1816	184.9137
512.3438	181.3256
512.506	182.1391
512.6682	179.8887
512.8304	178.8678
512.9926	183.9959
513.1548	176.5837
513.317	184.6355
513.4792	178.1236
513.6414	181.8743
513.8035	176.0746
513.9657	178.4618
514.1279	175.5394
514.29	176.4168
514.4521	176.4765
514.6143	174.8373
514.7764	182.518
514.9385	189.7834
515.1006	182.4924
515.2628	178.8089
515.4249	180.2645
515.587	179.6319
515.7491	182.7813
515.9111	185.8591
516.0732	184.2374
516.2353	183.3646
