SPECTRUM DATA FILE
SpectrumCount:	1
PixelCount:	3648
UserName:	ToughBook User
SampleName:	
LightSource:	
Comments:	
DeviceName:	Qwave
DeviceManufacturer:	Broadcom
DeviceSerialNo:	11311

Name:	last spectrum
Date:	2024-05-02T14:49:40.4687979+02:00
ExposureTime:	0.02
TemporalAvg:	1
IntensityUnit:	normalizedCounts
CCDLoadLevel:	0.06410631
Temperature:	32.3692
DiagramColor:	200
ProcessingSteps:	335

Wavelength [nm]	Intensity1
334.421	26.81641
334.5891	30.78191
334.7573	28.61003
334.9254	25.97439
335.0935	26.3425
335.2616	28.26677
335.4297	21.0239
335.5978	23.75654
335.7659	27.43615
335.934	25.0011
336.1021	25.29082
336.2701	27.31602
336.4382	23.43057
336.6063	22.95178
336.7744	20.40717
336.9424	22.70457
337.1105	26.41735
337.2785	25.76435
337.4466	22.68822
337.6146	23.318
337.7827	22.53698
337.9507	23.98209
338.1187	26.48513
338.2867	20.64753
338.4548	22.64339
338.6228	23.48089
338.7908	29.24755
338.9588	31.07965
339.1268	27.75266
339.2948	22.96192
339.4628	28.61845
339.6308	26.00932
339.7988	19.82053
339.9667	23.16567
340.1347	18.15037
340.3027	21.88757
340.4707	25.3305
340.6386	23.179
340.8066	23.69038
340.9745	24.31034
341.1425	24.5418
341.3104	25.20234
341.4784	25.1615
341.6463	23.57084
341.8142	26.06145
341.9821	26.27935
342.1501	23.05445
342.318	23.43737
342.4859	30.35866
342.6538	31.6442
342.8217	28.98179
342.9896	26.94776
343.1575	31.02031
343.3254	26.28515
343.4933	27.07423
343.6612	33.82376
343.829	26.27327
343.9969	27.79918
344.1648	28.04681
344.3326	31.45695
344.5005	31.95958
344.6683	29.18419
344.8362	24.58944
345.004	26.27056
345.1719	25.65301
345.3397	30.60547
345.5075	32.66514
345.6754	27.18885
345.8432	25.73777
346.011	30.75377
346.1788	28.79874
346.3466	28.48718
346.5144	26.17846
346.6822	30.67264
346.85	32.25267
347.0178	26.51323
347.1856	27.3147
347.3534	25.23451
347.5211	27.51937
347.6889	25.27674
347.8567	28.26339
348.0244	26.4765
348.1922	29.17107
348.3599	26.47497
348.5277	27.09
348.6954	30.0204
348.8632	31.19072
349.0309	26.95262
349.1986	30.65874
349.3663	28.74138
349.5341	27.70565
349.7018	26.74151
349.8695	29.62585
350.0372	27.95829
350.2049	32.03555
350.3726	27.02243
350.5403	31.22796
350.7079	28.99462
350.8756	30.5702
351.0433	23.70099
351.211	27.67601
351.3786	27.37506
351.5463	30.33374
351.714	32.11511
351.8816	36.31977
352.0493	28.45589
352.2169	26.87769
352.3846	31.17988
352.5522	27.61135
352.7198	25.23331
352.8875	30.53249
353.0551	30.81923
353.2227	34.13202
353.3903	34.79607
353.5579	34.83246
353.7255	32.72841
353.8931	34.03976
354.0607	31.11521
354.2283	34.79368
354.3958	39.32298
354.5634	35.48444
354.731	34.88183
354.8986	33.38512
355.0661	36.35445
355.2337	36.69142
355.4012	30.88
355.5688	34.51716
355.7363	32.56129
355.9039	33.49694
356.0714	28.83854
356.239	32.17987
356.4065	33.92903
356.574	30.46193
356.7415	30.50625
356.909	27.59679
357.0765	32.19327
357.244	27.43979
357.4115	28.24524
357.579	25.31477
357.7465	31.00249
357.914	30.7608
358.0815	27.67925
358.249	30.41058
358.4164	31.21967
358.5839	29.89388
358.7513	31.54237
358.9188	30.26561
359.0862	31.46127
359.2537	32.1349
359.4211	33.62536
359.5886	33.60349
359.756	29.29402
359.9234	29.58287
360.0909	27.84748
360.2583	34.96066
360.4257	30.97361
360.5931	27.57022
360.7605	26.91957
360.9279	31.28178
361.0953	28.52666
361.2627	34.46611
361.4301	40.31761
361.5974	37.68202
361.7648	32.59084
361.9322	31.81028
362.0995	29.54996
362.2669	31.89348
362.4343	38.88921
362.6016	35.51585
362.769	35.65427
362.9363	32.44743
363.1036	35.69467
363.271	39.41338
363.4383	34.03855
363.6056	36.02587
363.7729	39.34374
363.9402	39.19779
364.1075	40.44822
364.2748	40.56142
364.4421	37.60752
364.6094	37.26029
364.7767	30.51
364.944	29.03671
365.1113	36.71925
365.2786	38.98762
365.4458	36.90818
365.6131	34.86064
365.7803	40.16043
365.9476	36.74144
366.1148	37.71138
366.2821	39.28123
366.4493	41.96331
366.6166	40.4304
366.7838	40.98521
366.951	39.13474
367.1182	40.33358
367.2855	39.13484
367.4527	39.82776
367.6199	34.13567
367.7871	39.92621
367.9543	37.75438
368.1215	35.53215
368.2886	37.93528
368.4558	37.17284
368.623	40.47972
368.7902	39.8919
368.9573	36.91311
369.1245	35.65906
369.2917	40.81382
369.4588	40.9855
369.6259	42.32721
369.7931	38.75566
369.9602	38.09446
370.1274	41.758
370.2945	40.87459
370.4616	37.46068
370.6287	38.28918
370.7958	34.9896
370.963	34.15688
371.1301	40.97292
371.2971	37.73252
371.4643	39.53619
371.6313	44.58861
371.7984	45.30687
371.9655	40.62628
372.1326	42.15796
372.2997	43.08746
372.4667	39.38465
372.6338	42.5192
372.8008	42.75548
372.9679	40.51033
373.1349	40.51865
373.3019	36.70403
373.469	36.13028
373.636	41.09699
373.803	41.45461
373.9701	43.73994
374.1371	42.42432
374.3041	40.82839
374.4711	44.72235
374.6381	46.22505
374.8051	40.00579
374.9721	36.63998
375.1391	41.28759
375.3061	41.11255
375.473	47.8249
375.64	45.46068
375.8069	50.20028
375.9739	45.41212
376.1409	40.4825
376.3078	44.62491
376.4748	41.73528
376.6417	47.92006
376.8087	40.76833
376.9756	45.27205
377.1425	44.48015
377.3094	40.76169
377.4763	46.63578
377.6432	44.15548
377.8102	45.65487
377.9771	47.59234
378.144	49.8061
378.3109	48.43307
378.4777	41.54735
378.6446	45.47812
378.8115	44.1565
378.9784	41.99105
379.1452	41.72897
379.3121	42.34889
379.4789	43.02282
379.6458	40.2562
379.8127	40.61292
379.9795	42.51332
380.1463	42.07087
380.3131	44.64209
380.48	44.25924
380.6468	43.90434
380.8136	47.60501
380.9804	45.17833
381.1472	44.53578
381.314	41.41657
381.4808	45.03651
381.6476	43.86328
381.8144	42.81009
381.9812	45.25864
382.148	42.33955
382.3147	42.10054
382.4815	39.68282
382.6483	36.78645
382.815	37.96025
382.9818	43.54591
383.1485	39.57071
383.3153	39.48183
383.482	37.22556
383.6487	40.22934
383.8155	43.96054
383.9822	45.26161
384.1489	46.63876
384.3156	49.69751
384.4823	51.31641
384.649	50.04271
384.8157	47.21769
384.9824	49.57587
385.1491	47.78151
385.3158	57.68069
385.4825	48.9934
385.6491	47.20213
385.8158	44.8758
385.9825	47.20894
386.1491	49.68538
386.3157	55.63777
386.4824	47.63158
386.649	47.87957
386.8157	48.88847
386.9823	47.38267
387.1489	40.29843
387.3156	44.31118
387.4821	53.78327
387.6488	51.21781
387.8154	49.77791
387.982	49.59407
388.1486	43.40019
388.3152	47.60947
388.4818	48.68701
388.6483	50.47547
388.8149	48.41819
388.9815	50.09991
389.148	58.53942
389.3146	55.75027
389.4811	53.0825
389.6477	52.62494
389.8142	50.1784
389.9808	53.39083
390.1473	50.72638
390.3138	54.88742
390.4804	54.83506
390.6469	54.75065
390.8134	56.30082
390.9799	59.63274
391.1464	59.0699
391.3129	58.7641
391.4794	58.59523
391.6459	60.87403
391.8124	54.78802
391.9789	54.9157
392.1453	52.82558
392.3118	55.98992
392.4782	55.42873
392.6447	52.00078
392.8112	45.71422
392.9776	46.32541
393.144	43.38017
393.3105	38.64912
393.4769	37.21917
393.6433	41.63049
393.8098	47.3919
393.9762	52.81898
394.1426	57.64106
394.309	50.54742
394.4754	52.92304
394.6418	57.09213
394.8082	65.02576
394.9746	61.30764
395.141	60.12264
395.3073	58.61744
395.4737	67.58692
395.64	67.09029
395.8064	64.49648
395.9728	61.17083
396.1391	59.28525
396.3055	56.90474
396.4718	52.1174
396.6381	44.14839
396.8045	39.20346
396.9708	40.54744
397.1371	50.35232
397.3034	57.92601
397.4697	58.44501
397.636	66.4487
397.8023	65.14678
397.9686	69.72892
398.1349	66.40907
398.3012	70.3614
398.4675	73.99997
398.6337	71.72907
398.8	77.25875
398.9662	73.27415
399.1325	68.81313
399.2988	75.2051
399.465	84.19029
399.6313	78.27024
399.7975	75.79527
399.9637	74.74109
400.1299	69.95444
400.2961	67.9607
400.4624	73.2275
400.6286	73.40798
400.7948	75.69933
400.961	76.32337
401.1272	73.6309
401.2934	74.66676
401.4595	72.607
401.6257	78.11433
401.7919	83.52863
401.9581	79.83498
402.1242	76.0634
402.2904	81.38423
402.4565	81.96339
402.6227	80.40162
402.7888	79.38547
402.955	79.19095
403.1211	73.0728
403.2872	70.7348
403.4533	74.72651
403.6194	77.03805
403.7856	83.77486
403.9517	83.04051
404.1177	73.8565
404.2838	76.25721
404.4499	70.47021
404.616	69.8281
404.7821	76.31678
404.9482	74.40757
405.1142	82.36472
405.2803	77.25356
405.4464	75.24877
405.6124	78.6151
405.7784	79.58032
405.9445	76.33201
406.1105	71.23876
406.2766	79.52322
406.4426	78.76147
406.6086	77.64334
406.7746	78.20749
406.9406	88.41915
407.1066	86.00551
407.2726	78.49541
407.4386	74.89395
407.6046	82.94794
407.7706	76.33025
407.9366	84.13867
408.1025	86.45029
408.2685	85.05704
408.4344	89.95055
408.6004	89.17518
408.7664	91.48199
408.9323	91.54217
409.0983	89.13661
409.2642	85.66102
409.4301	88.57595
409.596	84.43318
409.762	87.87392
409.9279	79.93793
410.0938	77.6202
410.2597	77.95143
410.4256	89.58311
410.5915	91.89272
410.7574	92.61128
410.9232	88.45377
411.0891	97.38831
411.255	95.2659
411.4209	92.14067
411.5867	96.58651
411.7526	97.00175
411.9184	94.02413
412.0843	104.9813
412.2501	102.8286
412.4159	96.00582
412.5818	96.32263
412.7476	95.14007
412.9134	93.51337
413.0792	96.96579
413.245	90.47045
413.4108	94.95437
413.5766	99.42459
413.7424	101.7657
413.9082	97.22528
414.074	105.6659
414.2397	92.97877
414.4055	87.28176
414.5713	91.60882
414.737	89.83048
414.9028	96.0594
415.0685	100.5356
415.2343	93.41865
415.4	89.64362
415.5658	96.65677
415.7315	92.92072
415.8972	93.1864
416.0629	97.76104
416.2286	96.89536
416.3943	98.80135
416.56	97.80069
416.7257	98.18211
416.8914	92.79853
417.0571	93.56818
417.2228	95.75043
417.3884	94.64693
417.5541	95.07983
417.7198	94.70673
417.8854	95.17863
418.0511	93.33114
418.2167	95.06464
418.3824	95.40881
418.548	95.28708
418.7136	96.23898
418.8792	95.21423
419.0449	93.40826
419.2105	99.72483
419.3761	102.9784
419.5417	97.2971
419.7073	97.41256
419.8729	97.2919
420.0385	99.17338
420.204	92.96915
420.3696	100.8637
420.5352	99.76699
420.7007	101.5776
420.8663	107.9357
421.0319	105.6416
421.1974	103.9191
421.3629	102.7814
421.5285	111.2718
421.694	105.4838
421.8595	106.144
422.0251	113.0706
422.1906	107.345
422.3561	105.0516
422.5216	96.40703
422.6871	96.89123
422.8526	106.357
423.0181	107.3637
423.1835	109.962
423.349	108.3755
423.5145	106.3222
423.68	109.5629
423.8454	105.4102
424.0109	108.5259
424.1763	115.5611
424.3418	115.4122
424.5072	113.0869
424.6726	106.8534
424.838	105.0198
425.0035	101.8335
425.1689	109.0885
425.3343	110.6012
425.4997	112.4904
425.6651	110.3029
425.8305	112.329
425.9959	107.6741
426.1613	113.0329
426.3267	111.3278
426.492	112.1519
426.6574	112.804
426.8228	118.2785
426.9881	106.5199
427.1534	102.4482
427.3188	107.1417
427.4841	100.7773
427.6495	111.3471
427.8148	114.8378
427.9801	112.6909
428.1454	111.7668
428.3107	108.5688
428.476	112.1691
428.6414	106.3282
428.8066	108.2025
428.9719	108.3954
429.1372	109.2026
429.3025	110.2758
429.4678	106.1538
429.633	110.7269
429.7983	100.1954
429.9636	90.94955
430.1288	82.31013
430.294	86.17387
430.4593	96.89562
430.6245	98.58392
430.7897	91.5769
430.955	93.16281
431.1202	97.8091
431.2854	100.6357
431.4506	111.7984
431.6158	124.2732
431.781	127.725
431.9462	132.5701
432.1114	122.5022
432.2766	111.645
432.4417	106.87
432.6069	101.771
432.772	112.0256
432.9372	119.2762
433.1024	123.1105
433.2675	126.7877
433.4326	125.3976
433.5977	118.3838
433.7629	115.6341
433.928	107.2676
434.0931	103.5389
434.2582	105.6944
434.4233	115.8016
434.5884	126.518
434.7535	124.6838
434.9186	130.0788
435.0837	123.5808
435.2488	119.191
435.4138	122.0731
435.5789	127.3194
435.744	129.6387
435.909	123.9778
436.0741	130.8286
436.2391	129.8691
436.4042	129.912
436.5692	131.8531
436.7342	132.1787
436.8992	132.8248
437.0643	131.8533
437.2293	134.0724
437.3943	127.4202
437.5593	125.5555
437.7243	129.922
437.8893	134.0238
438.0542	135.1267
438.2192	127.2167
438.3842	113.8408
438.5491	115.8926
438.7141	123.3352
438.8791	124.8197
439.044	132.9398
439.209	135.2564
439.3739	130.2621
439.5388	136.9561
439.7037	141.3018
439.8687	134.3962
440.0336	131.7664
440.1985	131.9879
440.3634	128.939
440.5283	128.6142
440.6932	130.1616
440.8581	134.3124
441.0229	140.7312
441.1878	145.4741
441.3527	145.5112
441.5175	139.1138
441.6824	139.8097
441.8472	143.772
442.0121	146.2713
442.1769	141.0787
442.3418	141.8046
442.5066	141.6327
442.6714	147.0513
442.8362	150.1989
443.001	139.5598
443.1659	143.1312
443.3307	141.7566
443.4955	143.6639
443.6602	148.1776
443.825	147.1676
443.9898	138.8447
444.1546	140.8625
444.3193	146.0093
444.4841	143.8229
444.6488	152.679
444.8136	149.7404
444.9783	149.9557
445.1431	147.7533
445.3078	139.9485
445.4725	136.6078
445.6372	140.9888
445.802	146.5523
445.9667	140.8552
446.1314	140.1463
446.2961	143.8067
446.4608	142.7118
446.6255	145.9248
446.7901	142.5064
446.9548	147.7143
447.1195	154.8858
447.2841	153.3577
447.4488	153.9139
447.6134	157.6735
447.7781	158.174
447.9427	150.0359
448.1074	155.7927
448.272	145.6233
448.4366	146.4861
448.6012	156.0053
448.7658	160.5195
448.9305	151.4207
449.095	154.747
449.2596	152.9617
449.4242	156.612
449.5888	156.5935
449.7534	155.6021
449.9179	161.6841
450.0825	172.3954
450.2471	171.6845
450.4116	165.0536
450.5762	172.171
450.7407	163.8904
450.9052	166.7199
451.0698	164.7887
451.2343	165.5436
451.3988	162.9285
451.5633	168.2204
451.7278	169.5283
451.8923	160.5757
452.0568	161.3034
452.2213	163.7254
452.3858	163.6427
452.5503	152.0565
452.7148	148.0114
452.8792	155.8074
453.0437	159.6184
453.2081	159.9231
453.3726	159.7115
453.537	167.0593
453.7015	170.554
453.8659	169.494
454.0303	166.9981
454.1947	172.2027
454.3592	172.2638
454.5236	168.5851
454.688	163.808
454.8524	165.5633
455.0168	164.7711
455.1811	170.6585
455.3455	164.2673
455.5099	173.2967
455.6743	169.839
455.8386	173.5362
456.003	172.6106
456.1673	176.4694
456.3317	176.1898
456.496	171.7776
456.6603	177.1044
456.8246	183.9975
456.989	180.9171
457.1533	170.7652
457.3176	173.6464
457.4819	181.7266
457.6462	180.5354
457.8105	176.2279
457.9748	170.6375
458.1391	169.0408
458.3033	166.7797
458.4676	170.171
458.6319	173.1765
458.7961	173.6272
458.9604	171.5069
459.1246	168.9998
459.2888	165.8942
459.4531	173.6979
459.6173	181.6331
459.7815	172.2326
459.9457	164.1349
460.11	166.1977
460.2741	172.1337
460.4384	171.3732
460.6025	173.2155
460.7667	172.3351
460.9309	176.7314
461.0951	178.5049
461.2592	178.365
461.4234	180.0887
461.5876	177.3233
461.7517	184.3997
461.9159	181.3844
462.08	177.1685
462.2441	177.726
462.4082	180.2643
462.5724	182.671
462.7365	176.721
462.9006	178.633
463.0647	178.1606
463.2288	182.6691
463.3929	180.9707
463.557	182.9918
463.721	181.7066
463.8851	173.6787
464.0492	176.39
464.2132	177.152
464.3773	182.9305
464.5414	179.8347
464.7054	167.9067
464.8694	173.0658
465.0334	173.1321
465.1975	182.8125
465.3615	185.328
465.5255	176.7535
465.6895	181.1312
465.8535	183.8236
466.0175	178.247
466.1815	181.883
466.3455	182.9105
466.5095	176.4191
466.6734	174.6136
466.8374	172.4129
467.0014	177.2371
467.1653	180.7931
467.3293	181.1992
467.4932	179.1013
467.6571	181.6184
467.8211	176.5863
467.985	174.3371
468.1489	175.9224
468.3128	180.3703
468.4767	177.8732
468.6406	183.0702
468.8045	177.2568
468.9684	181.8837
469.1323	184.9553
469.2962	189.0624
469.46	190.0422
469.6239	187.7668
469.7878	189.1274
469.9516	186.2616
470.1154	178.6576
470.2793	176.5225
470.4431	182.231
470.607	180.0733
470.7708	178.4176
470.9346	179.428
471.0984	179.6792
471.2622	184.7096
471.426	190.6474
471.5898	184.1801
471.7536	192.5852
471.9174	199.4491
472.0811	199.7693
472.2449	194.042
472.4087	203.3717
472.5724	200.1924
472.7362	187.6197
472.8999	182.2032
473.0637	188.7221
473.2274	194.7491
473.3911	188.8734
473.5548	189.9042
473.7185	192.3434
473.8822	187.5602
474.0459	191.4085
474.2096	193.7872
474.3733	202.9646
474.537	202.0235
474.7007	204.2657
474.8643	201.2802
475.028	196.1176
475.1917	194.2207
475.3553	189.9218
475.519	191.5924
475.6826	196.8083
475.8463	195.4542
476.0099	188
476.1735	197.4637
476.3371	190.6897
476.5007	193.0003
476.6643	188.0411
476.8279	184.492
476.9915	193.3952
477.1551	199.9044
477.3187	198.3397
477.4823	193.6623
477.6458	194.8425
477.8094	195.3217
477.9729	202.2101
478.1365	189.6097
478.3	193.0959
478.4636	190.3042
478.6271	186.9241
478.7906	187.0409
478.9541	190.5508
479.1176	193.8089
479.2812	195.8517
479.4447	202.7092
479.6082	201.2271
479.7716	207.8045
479.9351	202.6577
480.0986	194.0663
480.2621	191.914
480.4255	198.3349
480.589	193.2862
480.7524	193.7459
480.9159	193.592
481.0793	190.9564
481.2428	187.3746
481.4062	195.6973
481.5696	196.4911
481.733	190.2194
481.8964	197.1952
482.0598	203.5378
482.2232	202.4745
482.3866	198.5879
482.55	190.3478
482.7134	193.5083
482.8768	191.6699
483.0401	194.4984
483.2035	197.4906
483.3668	199.8524
483.5302	195.9945
483.6935	196.8114
483.8568	191.7815
484.0202	191.8258
484.1835	194.4793
484.3468	193.872
484.5101	199.7268
484.6734	194.4883
484.8367	202.9668
485	201.4043
485.1633	197.1052
485.3266	195.9538
485.4899	192.7519
485.6531	179.337
485.8164	174.6975
485.9796	163.9439
486.1429	157.0356
486.3061	167.1831
486.4694	178.1174
486.6326	186.384
486.7958	194.8566
486.959	184.4268
487.1223	185.1141
487.2855	184.4539
487.4486	183.4018
487.6118	188.3998
487.775	193.2821
487.9382	199.1263
488.1014	202.4683
488.2646	202.9359
488.4277	207.5358
488.5909	200.6232
488.754	186.4816
488.9171	190.8543
489.0803	193.1666
489.2434	190.8645
489.4066	197.5652
489.5697	204.0395
489.7328	209.77
489.8959	210.2536
490.059	206.3176
490.2221	209.6275
490.3852	207.9941
490.5482	205.3426
490.7113	208.1463
490.8744	208.0204
491.0374	201.0306
491.2005	198.2995
491.3636	205.5575
491.5266	206.3051
491.6896	207.4288
491.8527	197.3462
492.0157	190.5506
492.1787	192.4065
492.3417	196.5616
492.5047	201.923
492.6677	209.0069
492.8307	206.4686
492.9937	209.4932
493.1567	210.5817
493.3196	208.9069
493.4826	199.6421
493.6456	205.4743
493.8085	198.9267
493.9715	192.5759
494.1344	202.6884
494.2974	211.0894
494.4603	210.7538
494.6232	208.5003
494.7861	211.6908
494.949	213.5615
495.1119	212.8795
495.2748	211.4708
495.4377	215.9646
495.6006	202.8896
495.7635	200.4417
495.9264	208.6283
496.0892	210.821
496.2521	214.0579
496.4149	213.621
496.5778	214.4442
496.7407	213.1104
496.9035	210.7776
497.0663	208.2701
497.2291	211.4135
497.3919	209.5944
497.5547	213.8722
497.7176	219.3673
497.8804	209.6091
498.0432	210.2352
498.2059	204.6156
498.3687	198.8276
498.5315	203.914
498.6942	212.9393
498.857	210.7456
499.0198	203.9046
499.1825	206.1463
499.3452	215.524
499.508	215.1827
499.6707	213.5471
499.8334	212.3243
499.9962	208.0795
500.1589	208.0102
500.3216	208.9543
500.4843	206.4712
500.6469	202.55
500.8096	202.5078
500.9723	206.5925
501.135	208.6157
501.2976	203.3042
501.4603	199.5453
501.623	206.3323
501.7856	193.8877
501.9482	198.0958
502.1109	212.1268
502.2735	210.0897
502.4361	213.0815
502.5987	208.2334
502.7614	208.02
502.924	207.9778
503.0865	209.4459
503.2491	210.0976
503.4117	221.5022
503.5743	212.8523
503.7368	206.7983
503.8994	203.088
504.062	200.1602
504.2245	203.0942
504.3871	211.2135
504.5496	216.704
504.7121	222.9935
504.8746	216.4545
505.0372	212.3882
505.1997	209.7623
505.3622	222.3074
505.5247	221.9947
505.6872	220.1024
505.8497	227.2959
506.0121	228.3007
506.1746	228.5629
506.3371	219.2576
506.4995	217.6373
506.662	216.3647
506.8244	219.1477
506.9869	224.9768
507.1493	226.0831
507.3117	227.1866
507.4742	218.8195
507.6366	219.0455
507.799	220.2737
507.9614	213.7827
508.1238	205.4181
508.2862	203.5282
508.4485	216.8717
508.6109	221.5919
508.7733	220.1863
508.9357	216.8301
509.098	227.8021
509.2604	229.6224
509.4227	228.8213
509.5851	231.1226
509.7474	219.0202
509.9097	212.9421
510.072	228.5351
510.2343	226.7092
510.3966	235.0764
510.5589	230.1322
510.7212	225.1517
510.8835	216.1257
511.0458	213.0796
511.2081	225.3504
511.3703	228.2256
511.5326	231.3297
511.6949	235.5647
511.8571	228.8529
512.0193	231.552
512.1816	226.0231
512.3438	219.3563
512.506	211.9935
512.6682	217.5192
512.8304	223.3134
512.9926	220.0941
513.1548	224.0847
513.317	222.667
513.4792	224.1947
513.6414	221.0565
513.8035	220.6258
513.9657	208.4015
514.1279	212.1268
514.29	210.1079
514.4521	213.23
514.6143	219.3882
514.7764	217.2515
514.9385	220.7581
515.1006	223.3774
515.2628	224.7166
515.4249	219.7635
515.587	225.3509
515.7491	223.9832
515.9111	221.8968
516.0732	224.1643
516.2353	229.9484
516.3973	219.255
516.5594	207.9136
