SPECTRUM DATA FILE
SpectrumCount:	1
PixelCount:	3648
UserName:	ToughBook User
SampleName:	
LightSource:	
Comments:	
DeviceName:	Qwave
DeviceManufacturer:	Broadcom
DeviceSerialNo:	11311

Name:	last spectrum
Date:	2024-05-02T14:49:50.7324943+02:00
ExposureTime:	0.02
TemporalAvg:	1
IntensityUnit:	normalizedCounts
CCDLoadLevel:	0.05389753
Temperature:	32.3692
DiagramColor:	200
ProcessingSteps:	335

Wavelength [nm]	Intensity1
334.421	18.72144
334.5891	18.43434
334.7573	24.95629
334.9254	22.9614
335.0935	27.05985
335.2616	20.40594
335.4297	21.29109
335.5978	26.68559
335.7659	21.45893
335.934	26.16394
336.1021	19.76818
336.2701	20.90011
336.4382	18.42561
336.6063	20.11357
336.7744	22.67945
336.9424	22.8412
337.1105	22.31327
337.2785	25.23879
337.4466	17.70625
337.6146	24.21281
337.7827	24.26475
337.9507	25.48846
338.1187	21.4499
338.2867	19.65909
338.4548	20.85886
338.6228	22.36671
338.7908	20.14483
338.9588	18.26608
339.1268	18.40678
339.2948	21.4939
339.4628	22.52195
339.6308	26.41797
339.7988	25.499
339.9667	22.10247
340.1347	22.08868
340.3027	21.37386
340.4707	24.56894
340.6386	26.225
340.8066	24.66025
340.9745	26.20452
341.1425	20.02929
341.3104	20.96358
341.4784	16.81754
341.6463	20.56693
341.8142	18.05185
341.9821	18.75943
342.1501	21.90296
342.318	18.88709
342.4859	21.56142
342.6538	20.43344
342.8217	26.72955
342.9896	23.66289
343.1575	19.7819
343.3254	20.6507
343.4933	25.03249
343.6612	26.33587
343.829	19.72218
343.9969	26.8993
344.1648	24.46409
344.3326	29.81131
344.5005	22.73658
344.6683	27.66704
344.8362	18.58704
345.004	21.42756
345.1719	24.13159
345.3397	23.80972
345.5075	27.68888
345.6754	24.81274
345.8432	22.04131
346.011	23.83366
346.1788	29.59577
346.3466	28.15607
346.5144	18.6764
346.6822	23.7921
346.85	25.65142
347.0178	26.29993
347.1856	25.95951
347.3534	27.42074
347.5211	23.71465
347.6889	23.82459
347.8567	22.92001
348.0244	24.61416
348.1922	26.00159
348.3599	23.10946
348.5277	22.86588
348.6954	24.2699
348.8632	27.09938
349.0309	24.91247
349.1986	20.08987
349.3663	21.77591
349.5341	20.65697
349.7018	18.85529
349.8695	22.23482
350.0372	29.84975
350.2049	29.23429
350.3726	26.17734
350.5403	23.57671
350.7079	23.01157
350.8756	24.23978
351.0433	22.62341
351.211	27.16156
351.3786	23.95552
351.5463	28.09453
351.714	25.61484
351.8816	26.47874
352.0493	23.35109
352.2169	22.3247
352.3846	21.44633
352.5522	26.42238
352.7198	27.14388
352.8875	27.85563
353.0551	24.46947
353.2227	28.37157
353.3903	27.30878
353.5579	24.58578
353.7255	24.45976
353.8931	23.93116
354.0607	32.47725
354.2283	28.16484
354.3958	24.67871
354.5634	30.55469
354.731	27.34293
354.8986	30.8035
355.0661	26.12436
355.2337	24.04028
355.4012	27.37423
355.5688	31.95111
355.7363	27.25375
355.9039	29.96969
356.0714	32.64817
356.239	29.58387
356.4065	30.63244
356.574	25.61346
356.7415	27.1942
356.909	28.22281
357.0765	27.0317
357.244	30.22596
357.4115	29.07435
357.579	25.89697
357.7465	25.59188
357.914	22.55591
358.0815	24.15329
358.249	26.17893
358.4164	23.31397
358.5839	22.13168
358.7513	23.53016
358.9188	26.05145
359.0862	27.54156
359.2537	27.35228
359.4211	29.63513
359.5886	28.90283
359.756	31.05498
359.9234	29.10537
360.0909	26.73036
360.2583	28.78609
360.4257	29.62195
360.5931	29.26406
360.7605	28.54353
360.9279	28.3469
361.0953	29.93603
361.2627	32.65496
361.4301	29.56141
361.5974	26.51291
361.7648	23.58684
361.9322	29.21073
362.0995	28.58813
362.2669	26.02852
362.4343	28.92384
362.6016	33.11239
362.769	30.46716
362.9363	30.68802
363.1036	29.00436
363.271	29.88396
363.4383	30.55458
363.6056	28.01555
363.7729	31.69808
363.9402	28.43941
364.1075	25.64829
364.2748	27.57303
364.4421	31.01275
364.6094	31.07877
364.7767	28.6226
364.944	33.25897
365.1113	32.30592
365.2786	32.55525
365.4458	31.83625
365.6131	32.56947
365.7803	34.30167
365.9476	32.5413
366.1148	30.04231
366.2821	32.51104
366.4493	30.58817
366.6166	28.44713
366.7838	25.12489
366.951	33.45436
367.1182	36.25326
367.2855	39.83442
367.4527	34.57951
367.6199	33.62813
367.7871	31.23268
367.9543	36.14157
368.1215	35.63813
368.2886	35.64003
368.4558	30.65898
368.623	29.10882
368.7902	29.39716
368.9573	33.3779
369.1245	33.24773
369.2917	39.49281
369.4588	31.57249
369.6259	35.37093
369.7931	33.93866
369.9602	34.17087
370.1274	40.30139
370.2945	33.02284
370.4616	30.36337
370.6287	29.18432
370.7958	32.32827
370.963	31.0069
371.1301	38.35825
371.2971	38.81529
371.4643	39.36585
371.6313	38.34566
371.7984	36.47934
371.9655	36.49845
372.1326	31.76152
372.2997	36.93304
372.4667	38.46842
372.6338	37.51508
372.8008	32.81131
372.9679	29.64526
373.1349	40.33269
373.3019	37.1568
373.469	35.79848
373.636	31.92315
373.803	37.24567
373.9701	40.60003
374.1371	38.01432
374.3041	35.85954
374.4711	34.14288
374.6381	30.26047
374.8051	32.59692
374.9721	36.12782
375.1391	40.8819
375.3061	38.61266
375.473	41.95478
375.64	39.18631
375.8069	39.23992
375.9739	44.10012
376.1409	39.56833
376.3078	41.33335
376.4748	44.50209
376.6417	38.82824
376.8087	37.74265
376.9756	44.37124
377.1425	37.31721
377.3094	43.50305
377.4763	42.65231
377.6432	42.57628
377.8102	41.07141
377.9771	40.82714
378.144	46.31814
378.3109	44.34393
378.4777	38.83647
378.6446	34.21936
378.8115	41.22075
378.9784	42.94248
379.1452	37.66169
379.3121	39.22467
379.4789	36.40291
379.6458	35.99224
379.8127	35.42899
379.9795	36.15538
380.1463	39.38404
380.3131	43.1983
380.48	41.43387
380.6468	40.67804
380.8136	39.57062
380.9804	40.76931
381.1472	45.76316
381.314	45.25035
381.4808	38.23205
381.6476	40.08022
381.8144	35.88892
381.9812	37.02225
382.148	38.35748
382.3147	38.79205
382.4815	35.49173
382.6483	35.38443
382.815	34.52205
382.9818	31.55199
383.1485	33.04624
383.3153	34.54026
383.482	34.44064
383.6487	36.84492
383.8155	37.96534
383.9822	40.52512
384.1489	40.47558
384.3156	43.34277
384.4823	42.57795
384.649	42.49397
384.8157	40.57501
384.9824	40.19254
385.1491	46.97943
385.3158	44.04341
385.4825	46.95721
385.6491	45.32463
385.8158	43.85944
385.9825	42.70797
386.1491	44.06262
386.3157	47.06059
386.4824	43.63239
386.649	44.71352
386.8157	44.78118
386.9823	40.50155
387.1489	47.5202
387.3156	49.81033
387.4821	45.54663
387.6488	45.85818
387.8154	42.61579
387.982	44.95974
388.1486	47.54691
388.3152	42.08386
388.4818	39.99781
388.6483	42.32979
388.8149	45.21403
388.9815	46.93955
389.148	49.97981
389.3146	47.8106
389.4811	48.75124
389.6477	51.4416
389.8142	56.96643
389.9808	49.30247
390.1473	43.72366
390.3138	48.41467
390.4804	46.95642
390.6469	48.58612
390.8134	48.68022
390.9799	49.4837
391.1464	51.47403
391.3129	50.32179
391.4794	50.86577
391.6459	54.16024
391.8124	53.18959
391.9789	50.96354
392.1453	45.5885
392.3118	47.70223
392.4782	47.05164
392.6447	48.25343
392.8112	42.04425
392.9776	39.2518
393.144	32.50259
393.3105	33.71313
393.4769	32.06279
393.6433	34.6826
393.8098	38.68225
393.9762	43.89615
394.1426	46.22328
394.309	47.91295
394.4754	48.66026
394.6418	53.09285
394.8082	51.26892
394.9746	65.45464
395.141	57.15707
395.3073	57.33883
395.4737	60.426
395.64	60.33808
395.8064	56.83185
395.9728	56.81757
396.1391	53.67912
396.3055	47.69232
396.4718	44.14872
396.6381	40.35105
396.8045	44.74357
396.9708	44.10712
397.1371	46.29804
397.3034	48.07292
397.4697	52.43413
397.636	54.11333
397.8023	62.63018
397.9686	58.85183
398.1349	63.68318
398.3012	63.59313
398.4675	63.58143
398.6337	66.83801
398.8	62.49063
398.9662	64.02478
399.1325	64.46095
399.2988	69.49743
399.465	68.3618
399.6313	64.1909
399.7975	62.14685
399.9637	69.96282
400.1299	68.98302
400.2961	70.49688
400.4624	66.24683
400.6286	68.40412
400.7948	66.7327
400.961	72.36649
401.1272	67.58634
401.2934	66.69534
401.4595	68.40039
401.6257	65.84647
401.7919	64.03342
401.9581	67.53405
402.1242	71.66411
402.2904	72.65283
402.4565	71.08519
402.6227	71.76594
402.7888	72.80293
402.955	68.09971
403.1211	63.70962
403.2872	67.86923
403.4533	68.37422
403.6194	69.30482
403.7856	74.25309
403.9517	73.73667
404.1177	70.94062
404.2838	71.61448
404.4499	66.15665
404.616	63.6096
404.7821	67.97123
404.9482	72.30235
405.1142	77.53626
405.2803	73.3157
405.4464	70.593
405.6124	70.62753
405.7784	67.77747
405.9445	72.66615
406.1105	73.43575
406.2766	71.43787
406.4426	71.78409
406.6086	67.16856
406.7746	74.2087
406.9406	75.78356
407.1066	71.44559
407.2726	67.12907
407.4386	73.51641
407.6046	76.86366
407.7706	74.23943
407.9366	77.64345
408.1025	82.40753
408.2685	76.32978
408.4344	85.17387
408.6004	80.07334
408.7664	81.29729
408.9323	85.08781
409.0983	85.81574
409.2642	82.21657
409.4301	82.96616
409.596	83.13511
409.762	77.36426
409.9279	73.34131
410.0938	65.99368
410.2597	67.01344
410.4256	75.80916
410.5915	82.5899
410.7574	86.54008
410.9232	89.41132
411.0891	86.7749
411.255	80.13223
411.4209	85.69427
411.5867	82.57733
411.7526	87.94756
411.9184	89.61174
412.0843	88.53378
412.2501	96.34037
412.4159	87.27429
412.5818	88.4513
412.7476	86.88425
412.9134	86.6442
413.0792	85.34422
413.245	84.23054
413.4108	88.12429
413.5766	87.08636
413.7424	87.00692
413.9082	87.26097
414.074	85.61333
414.2397	83.6544
414.4055	77.80252
414.5713	88.08326
414.737	86.42409
414.9028	88.62013
415.0685	82.40374
415.2343	87.0724
415.4	87.29858
415.5658	89.49116
415.7315	88.31078
415.8972	90.61628
416.0629	88.74451
416.2286	90.11628
416.3943	92.14497
416.56	87.38609
416.7257	83.74477
416.8914	86.00247
417.0571	80.58931
417.2228	81.15137
417.3884	78.72548
417.5541	76.44016
417.7198	85.27323
417.8854	82.44995
418.0511	86.07314
418.2167	88.02984
418.3824	81.09799
418.548	83.8068
418.7136	86.58333
418.8792	83.74737
419.0449	87.25674
419.2105	89.0979
419.3761	90.6579
419.5417	92.64423
419.7073	84.93453
419.8729	83.75855
420.0385	87.08575
420.204	83.75884
420.3696	88.04657
420.5352	87.87436
420.7007	90.38939
420.8663	97.09521
421.0319	98.61387
421.1974	97.20831
421.3629	98.00712
421.5285	92.48604
421.694	98.43893
421.8595	97.48402
422.0251	97.1284
422.1906	93.8102
422.3561	91.28413
422.5216	86.56461
422.6871	81.63603
422.8526	85.76271
423.0181	89.71721
423.1835	100.3795
423.349	101.8312
423.5145	96.38776
423.68	96.03555
423.8454	94.80048
424.0109	101.7911
424.1763	99.83962
424.3418	104.1024
424.5072	99.37283
424.6726	99.68534
424.838	91.82766
425.0035	95.09229
425.1689	99.99259
425.3343	98.44277
425.4997	98.92872
425.6651	100.9696
425.8305	105.0501
425.9959	96.40125
426.1613	89.58142
426.3267	96.96104
426.492	106.0697
426.6574	105.6306
426.8228	103.9674
426.9881	99.03848
427.1534	87.62389
427.3188	90.9313
427.4841	96.90945
427.6495	96.3568
427.8148	98.15043
427.9801	102.6472
428.1454	102.7225
428.3107	99.92851
428.476	102.1482
428.6414	102.5051
428.8066	96.64193
428.9719	91.35738
429.1372	100.3439
429.3025	96.3381
429.4678	98.48213
429.633	91.20553
429.7983	89.20811
429.9636	84.40136
430.1288	82.31564
430.294	88.29198
430.4593	91.75097
430.6245	88.37846
430.7897	87.26577
430.955	86.72123
431.1202	89.12141
431.2854	89.80161
431.4506	93.45144
431.6158	104.1013
431.781	107.8593
431.9462	113.3752
432.1114	105.5451
432.2766	96.54536
432.4417	95.69783
432.6069	90.16921
432.772	97.49516
432.9372	103.7568
433.1024	110.5384
433.2675	110.3458
433.4326	109.6265
433.5977	106.4141
433.7629	102.2617
433.928	96.64934
434.0931	90.60503
434.2582	91.23868
434.4233	100.5057
434.5884	109.1276
434.7535	112.7902
434.9186	117.8002
435.0837	116.2005
435.2488	108.5823
435.4138	106.9621
435.5789	111.5055
435.744	111.3641
435.909	115.9517
436.0741	123.0463
436.2391	127.7324
436.4042	123.8719
436.5692	121.8572
436.7342	127.0806
436.8992	119.1373
437.0643	116.9944
437.2293	114.6516
437.3943	113.5084
437.5593	114.5222
437.7243	118.6022
437.8893	124.2241
438.0542	121.5128
438.2192	108.9211
438.3842	100.1219
438.5491	106.5587
438.7141	111.4291
438.8791	108.4088
439.044	117.2275
439.209	124.8699
439.3739	117.3547
439.5388	120.6132
439.7037	123.6041
439.8687	121.9666
440.0336	128.9034
440.1985	123.1935
440.3634	115.654
440.5283	118.223
440.6932	123.6042
440.8581	122.35
441.0229	126.9961
441.1878	134.7655
441.3527	134.1761
441.5175	128.6066
441.6824	126.3507
441.8472	134.8044
442.0121	136.694
442.1769	123.2498
442.3418	124.7324
442.5066	125.9407
442.6714	131.811
442.8362	125.9739
443.001	134.7088
443.1659	126.4917
443.3307	126.8033
443.4955	130.7392
443.6602	131.7726
443.825	132.2075
443.9898	129.5713
444.1546	127.7685
444.3193	126.4918
444.4841	133.7234
444.6488	135.0745
444.8136	135.0956
444.9783	130.699
445.1431	136.2743
445.3078	129.7849
445.4725	122.8463
445.6372	126.9509
445.802	125.9215
445.9667	127.836
446.1314	125.8335
446.2961	127.3235
446.4608	127.4088
446.6255	127.0523
446.7901	130.1212
446.9548	126.8506
447.1195	129.1194
447.2841	134.7981
447.4488	139.102
447.6134	140.8547
447.7781	145.2875
447.9427	141.9185
448.1074	131.5828
448.272	133.8362
448.4366	137.3875
448.6012	141.8879
448.7658	138.8462
448.9305	138.399
449.095	141.0612
449.2596	140.8541
449.4242	142.7544
449.5888	136.7176
449.7534	138.7039
449.9179	146.4319
450.0825	145.8518
450.2471	144.0737
450.4116	144.3204
450.5762	149.9943
450.7407	149.5354
450.9052	150.9277
451.0698	149.6643
451.2343	154.1674
451.3988	143.9978
451.5633	144.8007
451.7278	146.6482
451.8923	149.4375
452.0568	144.9425
452.2213	151.8113
452.3858	144.8448
452.5503	141.3647
452.7148	148.7275
452.8792	137.978
453.0437	139.2843
453.2081	141.908
453.3726	139.7037
453.537	140.4402
453.7015	148.7297
453.8659	157.6317
454.0303	152.885
454.1947	147.1844
454.3592	153.7324
454.5236	152.6813
454.688	153.1111
454.8524	144.9801
455.0168	139.7352
455.1811	145.7191
455.3455	156.9358
455.5099	149.5299
455.6743	152.3093
455.8386	162.553
456.003	161.9409
456.1673	157.8996
456.3317	157.2649
456.496	158.8017
456.6603	159.8794
456.8246	155.1111
456.989	158.7492
457.1533	159.5949
457.3176	160.3199
457.4819	156.9654
457.6462	155.8418
457.8105	162.3353
457.9748	155.4582
458.1391	150.7869
458.3033	156.2025
458.4676	155.0324
458.6319	154.715
458.7961	155.5204
458.9604	162.6774
459.1246	154.3615
459.2888	146.4876
459.4531	159.1944
459.6173	155.6131
459.7815	153.8963
459.9457	153.1037
460.11	154.4013
460.2741	150.8484
460.4384	155.4886
460.6025	159.0877
460.7667	158.1255
460.9309	156.4792
461.0951	162.6012
461.2592	157.4019
461.4234	155.8845
461.5876	164.1353
461.7517	161.4827
461.9159	156.4971
462.08	165.3267
462.2441	165.0241
462.4082	159.6505
462.5724	164.271
462.7365	158.7791
462.9006	162.3195
463.0647	165.6674
463.2288	163.4627
463.3929	161.0638
463.557	158.9693
463.721	156.7654
463.8851	157.162
464.0492	156.1274
464.2132	155.9708
464.3773	157.4588
464.5414	152.7064
464.7054	146.5812
464.8694	152.7682
465.0334	153.7642
465.1975	159.9366
465.3615	164.0127
465.5255	154.6768
465.6895	152.6602
465.8535	164.347
466.0175	167.0164
466.1815	162.5168
466.3455	163.004
466.5095	158.9936
466.6734	145.6457
466.8374	151.7919
467.0014	154.6519
467.1653	157.0711
467.3293	162.6182
467.4932	161.1717
467.6571	159.7161
467.8211	161.569
467.985	165.1807
468.1489	161.8874
468.3128	162.2413
468.4767	163.0928
468.6406	169.6956
468.8045	168.7003
468.9684	166.4347
469.1323	155.8624
469.2962	161.7099
469.46	168.3497
469.6239	174.4593
469.7878	166.8071
469.9516	164.0688
470.1154	158.9837
470.2793	158.5466
470.4431	160.391
470.607	161.7191
470.7708	157.5527
470.9346	165.4819
471.0984	170.0756
471.2622	173.4407
471.426	166.9167
471.5898	176.1396
471.7536	175.0388
471.9174	172.9069
472.0811	174.0511
472.2449	172.9158
472.4087	181.9618
472.5724	175.0613
472.7362	170.3274
472.8999	158.8319
473.0637	166.8636
473.2274	165.4148
473.3911	169.4524
473.5548	173.0031
473.7185	170.1038
473.8822	173.8385
474.0459	173.5108
474.2096	180.143
474.3733	174.2547
474.537	178.9824
474.7007	179.4259
474.8643	183.4931
475.028	178.2473
475.1917	178.8647
475.3553	170.2687
475.519	163.0442
475.6826	173.7271
475.8463	173.9618
476.0099	180.7149
476.1735	177.8013
476.3371	171.9707
476.5007	165.9685
476.6643	168.8239
476.8279	166.6023
476.9915	170.5293
477.1551	172.8956
477.3187	174.9594
477.4823	176.8674
477.6458	180.5871
477.8094	176.5365
477.9729	182.28
478.1365	173.8308
478.3	170.609
478.4636	171.4372
478.6271	169.8562
478.7906	171.5305
478.9541	165.2713
479.1176	168.8951
479.2812	169.4261
479.4447	179.8004
479.6082	180.6239
479.7716	176.395
479.9351	172.7069
480.0986	170.4629
480.2621	178.4297
480.4255	176.2779
480.589	178.2674
480.7524	180.5189
480.9159	172.0675
481.0793	175.4854
481.2428	176.7984
481.4062	177.6054
481.5696	177.1044
481.733	180.38
481.8964	178.8445
482.0598	172.5792
482.2232	174.3047
482.3866	177.6892
482.55	176.5014
482.7134	182.4405
482.8768	180.8754
483.0401	174.0375
483.2035	168.823
483.3668	175.0297
483.5302	179.8204
483.6935	176.1413
483.8568	173.5494
484.0202	173.4122
484.1835	170.0664
484.3468	174.0822
484.5101	182.826
484.6734	185.9131
484.8367	178.618
485	179.4964
485.1633	182.5923
485.3266	184.6697
485.4899	172.9509
485.6531	159.6526
485.8164	148.0065
485.9796	143.9809
486.1429	144.4162
486.3061	146.1887
486.4694	147.0416
486.6326	164.341
486.7958	171.1708
486.959	165.4106
487.1223	165.411
487.2855	164.483
487.4486	161.9374
487.6118	171.9898
487.775	175.7734
487.9382	176.0042
488.1014	179.9504
488.2646	179.6017
488.4277	179.5915
488.5909	180.2365
488.754	172.0949
488.9171	165.3063
489.0803	166.716
489.2434	172.983
489.4066	178.5113
489.5697	185.4495
489.7328	187.1293
489.8959	192.375
490.059	185.0516
490.2221	185.4485
490.3852	178.5811
490.5482	182.1732
490.7113	191.0595
490.8744	186.9716
491.0374	181.8686
491.2005	180.3413
491.3636	185.744
491.5266	185.1765
491.6896	177.8707
491.8527	165.5366
492.0157	167.2694
492.1787	168.4259
492.3417	170.7378
492.5047	172.7397
492.6677	186.9147
492.8307	191.3897
492.9937	194.0079
493.1567	188.9579
493.3196	178.0293
493.4826	184.5476
493.6456	184.448
493.8085	181.0433
493.9715	178.584
494.1344	184.7207
494.2974	191.4937
494.4603	196.9653
494.6232	189.8947
494.7861	192.5013
494.949	188.3964
495.1119	200.4318
495.2748	200.3807
495.4377	189.8618
495.6006	183.749
495.7635	178.3834
495.9264	179.9753
496.0892	191.5203
496.2521	188.7204
496.4149	189.5282
496.5778	192.3269
496.7407	186.492
496.9035	186.8183
497.0663	186.7627
497.2291	195.9073
497.3919	197.0318
497.5547	199.976
497.7176	188.9416
497.8804	176.2909
498.0432	184.4823
498.2059	183.822
498.3687	176.9544
498.5315	175.1226
498.6942	185.343
498.857	185.8671
499.0198	190.8777
499.1825	187.0142
499.3452	189.1555
499.508	197.1926
499.6707	187.4772
499.8334	185.2313
499.9962	184.0026
500.1589	186.8231
500.3216	178.8535
500.4843	178.3596
500.6469	179.6479
500.8096	180.2201
500.9723	184.8162
501.135	189.6646
501.2976	179.7773
501.4603	179.9547
501.623	174.8804
501.7856	177.5817
501.9482	180.5034
502.1109	181.7207
502.2735	182.3322
502.4361	183.6328
502.5987	185.6694
502.7614	181.8736
502.924	182.2205
503.0865	191.2952
503.2491	194.5534
503.4117	191.1081
503.5743	188.7913
503.7368	190.0204
503.8994	180.7527
504.062	168.9679
504.2245	172.1228
504.3871	189.4613
504.5496	191.1109
504.7121	191.5
504.8746	192.4498
505.0372	188.4599
505.1997	185.4499
505.3622	194.7254
505.5247	197.4069
505.6872	192.8102
505.8497	199.2762
506.0121	197.3883
506.1746	199.5903
506.3371	197.6634
506.4995	201.4395
506.662	196.7063
506.8244	188.7304
506.9869	193.639
507.1493	195.4427
507.3117	198.9518
507.4742	197.9931
507.6366	197.0707
507.799	188.3483
507.9614	184.0626
508.1238	183.8323
508.2862	188.7047
508.4485	198.9365
508.6109	198.7563
508.7733	195.7271
508.9357	198.6831
509.098	195.8478
509.2604	199.507
509.4227	203.4728
509.5851	196.6918
509.7474	193.0505
509.9097	193.3371
510.072	191.3884
510.2343	196.4859
510.3966	206.702
510.5589	202.8342
510.7212	191.8186
510.8835	194.4732
511.0458	197.408
511.2081	203.8923
511.3703	195.9134
511.5326	200.8589
511.6949	199.8107
511.8571	200.419
512.0193	196.4766
512.1816	197.9715
512.3438	191.5242
512.506	192.5427
512.6682	197.5869
512.8304	195.247
512.9926	191.8932
513.1548	197.3204
513.317	194.8781
513.4792	195.4629
513.6414	200.9716
513.8035	197.2353
513.9657	194.4852
514.1279	191.9911
514.29	180.6273
514.4521	189.0989
514.6143	195.6898
514.7764	192.6823
514.9385	194.1037
515.1006	190.0112
515.2628	191.6545
515.4249	198.8523
515.587	202.7116
515.7491	200.5853
515.9111	199.4751
516.0732	189.9681
516.2353	191.944
