SPECTRUM DATA FILE
SpectrumCount:	1
PixelCount:	3648
UserName:	ToughBook User
SampleName:	
LightSource:	
Comments:	
DeviceName:	Qwave
DeviceManufacturer:	Broadcom
DeviceSerialNo:	11311

Name:	last spectrum
Date:	2024-05-02T14:50:01.3063195+02:00
ExposureTime:	0.02
TemporalAvg:	1
IntensityUnit:	normalizedCounts
CCDLoadLevel:	0.06230092
Temperature:	32.47928
DiagramColor:	200
ProcessingSteps:	335

Wavelength [nm]	Intensity1
334.421	24.31207
334.5891	26.83232
334.7573	26.14625
334.9254	24.57983
335.0935	27.44088
335.2616	26.63979
335.4297	29.67584
335.5978	26.54656
335.7659	21.83908
335.934	22.32586
336.1021	29.94148
336.2701	31.77866
336.4382	31.31988
336.6063	24.72661
336.7744	26.93248
336.9424	31.17297
337.1105	26.10361
337.2785	23.23179
337.4466	23.42705
337.6146	25.72209
337.7827	24.53872
337.9507	26.69958
338.1187	29.43153
338.2867	26.3273
338.4548	25.64587
338.6228	24.94119
338.7908	26.93555
338.9588	24.79312
339.1268	23.84892
339.2948	20.5836
339.4628	27.12666
339.6308	24.72561
339.7988	24.12665
339.9667	31.38273
340.1347	27.02401
340.3027	29.17933
340.4707	24.53938
340.6386	32.08207
340.8066	26.51196
340.9745	25.51001
341.1425	20.17998
341.3104	23.50213
341.4784	25.2576
341.6463	26.59342
341.8142	28.27752
341.9821	29.55295
342.1501	27.00403
342.318	31.48195
342.4859	28.38951
342.6538	25.15586
342.8217	24.72359
342.9896	31.2635
343.1575	26.80616
343.3254	27.73536
343.4933	28.34344
343.6612	27.1288
343.829	27.075
343.9969	23.87013
344.1648	25.68166
344.3326	25.38924
344.5005	29.66788
344.6683	29.72545
344.8362	28.44958
345.004	28.19451
345.1719	26.69962
345.3397	27.32343
345.5075	26.10037
345.6754	28.95561
345.8432	24.0748
346.011	25.55576
346.1788	32.05268
346.3466	31.23444
346.5144	29.69226
346.6822	27.23005
346.85	26.32361
347.0178	27.37971
347.1856	26.23919
347.3534	23.18601
347.5211	30.09705
347.6889	26.34509
347.8567	24.9426
348.0244	24.76006
348.1922	25.01209
348.3599	24.11711
348.5277	25.97215
348.6954	23.22308
348.8632	27.05981
349.0309	31.02099
349.1986	27.92749
349.3663	25.53371
349.5341	30.15734
349.7018	32.05093
349.8695	27.04091
350.0372	28.54617
350.2049	29.86009
350.3726	26.87465
350.5403	25.48055
350.7079	26.1333
350.8756	26.36897
351.0433	32.1818
351.211	25.0751
351.3786	30.39488
351.5463	31.12123
351.714	27.32311
351.8816	26.56426
352.0493	26.33568
352.2169	30.50835
352.3846	30.22444
352.5522	25.28636
352.7198	27.81603
352.8875	30.84152
353.0551	31.8115
353.2227	32.28306
353.3903	36.85221
353.5579	35.87305
353.7255	34.47926
353.8931	27.08498
354.0607	29.03134
354.2283	35.74672
354.3958	35.19273
354.5634	33.21457
354.731	32.79588
354.8986	33.45123
355.0661	31.56249
355.2337	32.54692
355.4012	31.25449
355.5688	32.10742
355.7363	34.49576
355.9039	33.59047
356.0714	35.57584
356.239	36.41737
356.4065	31.81915
356.574	31.9872
356.7415	31.24018
356.909	32.04971
357.0765	34.11653
357.244	31.7735
357.4115	33.05008
357.579	32.37342
357.7465	31.17967
357.914	25.89687
358.0815	28.24966
358.249	30.35328
358.4164	33.73266
358.5839	34.93467
358.7513	29.73213
358.9188	29.87966
359.0862	30.6122
359.2537	32.79604
359.4211	33.08872
359.5886	36.22802
359.756	33.02338
359.9234	36.16637
360.0909	36.79638
360.2583	34.36964
360.4257	35.03886
360.5931	26.84546
360.7605	30.9321
360.9279	30.74091
361.0953	30.99005
361.2627	31.05058
361.4301	33.89326
361.5974	37.21976
361.7648	34.55493
361.9322	36.68018
362.0995	34.91202
362.2669	34.20977
362.4343	39.46726
362.6016	37.87118
362.769	38.10302
362.9363	37.93571
363.1036	35.34506
363.271	37.98911
363.4383	37.03608
363.6056	36.55745
363.7729	38.89
363.9402	39.63465
364.1075	35.94593
364.2748	38.99212
364.4421	41.093
364.6094	40.19269
364.7767	40.53899
364.944	33.129
365.1113	40.17985
365.2786	37.9428
365.4458	42.42647
365.6131	40.38282
365.7803	40.17015
365.9476	37.16058
366.1148	41.99623
366.2821	38.91468
366.4493	42.3571
366.6166	39.15553
366.7838	44.25108
366.951	39.1442
367.1182	39.66845
367.2855	39.79284
367.4527	37.17559
367.6199	34.85306
367.7871	37.26214
367.9543	36.59306
368.1215	37.02438
368.2886	34.85004
368.4558	35.06874
368.623	34.06224
368.7902	34.60546
368.9573	40.34663
369.1245	41.90444
369.2917	34.71586
369.4588	38.26093
369.6259	38.03588
369.7931	43.05863
369.9602	43.70705
370.1274	35.94714
370.2945	34.60623
370.4616	34.49188
370.6287	38.2827
370.7958	34.30453
370.963	43.51635
371.1301	41.05534
371.2971	43.48636
371.4643	41.79347
371.6313	41.78983
371.7984	38.73371
371.9655	39.28399
372.1326	41.56041
372.2997	49.20288
372.4667	41.31361
372.6338	37.08047
372.8008	44.57423
372.9679	41.867
373.1349	45.11293
373.3019	41.93461
373.469	46.91738
373.636	43.48459
373.803	41.34548
373.9701	40.15222
374.1371	43.72115
374.3041	42.61332
374.4711	38.1341
374.6381	39.01701
374.8051	40.63928
374.9721	45.61269
375.1391	41.48928
375.3061	46.08587
375.473	47.82529
375.64	45.78687
375.8069	42.45568
375.9739	43.24294
376.1409	44.85263
376.3078	45.34751
376.4748	45.19387
376.6417	43.2996
376.8087	40.86992
376.9756	43.51547
377.1425	48.70021
377.3094	46.89108
377.4763	47.19719
377.6432	49.58646
377.8102	51.19589
377.9771	53.02752
378.144	52.30491
378.3109	49.53545
378.4777	48.30517
378.6446	47.48111
378.8115	47.03577
378.9784	44.32121
379.1452	40.05821
379.3121	36.70369
379.4789	37.66541
379.6458	41.4606
379.8127	43.53293
379.9795	44.68398
380.1463	47.72765
380.3131	47.70589
380.48	46.83914
380.6468	40.74796
380.8136	39.26313
380.9804	44.28723
381.1472	42.72894
381.314	41.67082
381.4808	38.67572
381.6476	46.93805
381.8144	40.83572
381.9812	42.36545
382.148	40.76667
382.3147	39.9987
382.4815	43.96482
382.6483	38.11155
382.815	35.14492
382.9818	42.34108
383.1485	39.08789
383.3153	40.03954
383.482	38.70925
383.6487	46.306
383.8155	42.27646
383.9822	38.70013
384.1489	42.82272
384.3156	41.50525
384.4823	48.98392
384.649	54.4744
384.8157	49.25928
384.9824	46.65734
385.1491	52.85846
385.3158	50.75842
385.4825	49.69591
385.6491	46.70794
385.8158	52.47308
385.9825	56.47952
386.1491	53.73971
386.3157	47.02644
386.4824	58.54676
386.649	50.66705
386.8157	43.60281
386.9823	42.72593
387.1489	52.72887
387.3156	48.21075
387.4821	51.4705
387.6488	50.24977
387.8154	50.88
387.982	51.2626
388.1486	49.05886
388.3152	41.75964
388.4818	50.99216
388.6483	52.36768
388.8149	49.1839
388.9815	46.70155
389.148	49.15579
389.3146	48.16153
389.4811	52.18589
389.6477	55.44632
389.8142	55.27605
389.9808	51.01505
390.1473	54.38056
390.3138	50.30663
390.4804	57.35592
390.6469	50.28445
390.8134	50.36739
390.9799	49.75252
391.1464	56.09016
391.3129	56.54409
391.4794	55.94853
391.6459	56.18703
391.8124	57.96689
391.9789	58.27203
392.1453	50.92566
392.3118	54.25576
392.4782	55.2168
392.6447	55.01632
392.8112	52.2151
392.9776	44.52169
393.144	44.05127
393.3105	44.32721
393.4769	39.00673
393.6433	39.34989
393.8098	42.50301
393.9762	49.35604
394.1426	54.44956
394.309	53.44344
394.4754	54.4152
394.6418	57.59399
394.8082	58.39877
394.9746	61.24631
395.141	60.64299
395.3073	65.86919
395.4737	60.68883
395.64	58.37272
395.8064	59.43295
395.9728	57.49654
396.1391	58.38622
396.3055	57.86043
396.4718	49.49236
396.6381	51.40804
396.8045	48.65094
396.9708	48.97052
397.1371	46.58136
397.3034	53.57492
397.4697	55.43818
397.636	59.08982
397.8023	65.19528
397.9686	69.58636
398.1349	71.18045
398.3012	76.71625
398.4675	76.58057
398.6337	68.25021
398.8	68.57944
398.9662	74.46157
399.1325	74.25903
399.2988	67.62478
399.465	69.36595
399.6313	69.476
399.7975	65.98939
399.9637	66.36403
400.1299	74.14128
400.2961	75.05587
400.4624	71.07362
400.6286	69.68845
400.7948	72.40594
400.961	74.93696
401.1272	73.50538
401.2934	76.95607
401.4595	74.47968
401.6257	74.93671
401.7919	70.42342
401.9581	80.60265
402.1242	85.54445
402.2904	82.51655
402.4565	76.40765
402.6227	78.96249
402.7888	80.71662
402.955	71.09052
403.1211	72.11085
403.2872	74.10527
403.4533	75.22963
403.6194	77.51301
403.7856	79.57858
403.9517	80.61493
404.1177	77.27112
404.2838	72.97599
404.4499	74.4823
404.616	71.64542
404.7821	78.82301
404.9482	75.57232
405.1142	78.96851
405.2803	78.34206
405.4464	73.40971
405.6124	71.88599
405.7784	72.01312
405.9445	73.7597
406.1105	73.59219
406.2766	75.6001
406.4426	76.71837
406.6086	83.80519
406.7746	83.57721
406.9406	72.89014
407.1066	74.38651
407.2726	87.02642
407.4386	85.0183
407.6046	79.25972
407.7706	81.15514
407.9366	82.2421
408.1025	87.23482
408.2685	91.43874
408.4344	88.35456
408.6004	84.56351
408.7664	91.89207
408.9323	92.28478
409.0983	88.23152
409.2642	85.45668
409.4301	87.45801
409.596	83.7174
409.762	83.039
409.9279	77.78687
410.0938	78.782
410.2597	83.47066
410.4256	83.41857
410.5915	84.64365
410.7574	83.88983
410.9232	89.91034
411.0891	94.85479
411.255	87.69002
411.4209	97.86202
411.5867	91.92399
411.7526	86.84861
411.9184	94.73971
412.0843	90.81152
412.2501	96.94668
412.4159	96.16204
412.5818	86.32418
412.7476	91.04034
412.9134	88.70573
413.0792	86.67673
413.245	89.58191
413.4108	89.84099
413.5766	89.73738
413.7424	95.52905
413.9082	99.95746
414.074	92.83847
414.2397	93.81854
414.4055	90.36138
414.5713	95.92465
414.737	94.03545
414.9028	89.10857
415.0685	92.23238
415.2343	91.11211
415.4	90.62918
415.5658	87.11015
415.7315	85.43789
415.8972	89.72749
416.0629	88.72462
416.2286	94.68155
416.3943	98.90421
416.56	99.60973
416.7257	89.1302
416.8914	92.96402
417.0571	91.5645
417.2228	90.30302
417.3884	88.85988
417.5541	90.26669
417.7198	88.84946
417.8854	91.30347
418.0511	95.72763
418.2167	93.43385
418.3824	96.98228
418.548	91.69103
418.7136	90.58497
418.8792	91.98345
419.0449	91.54259
419.2105	94.12779
419.3761	98.63631
419.5417	98.03787
419.7073	95.9835
419.8729	93.00402
420.0385	88.2869
420.204	97.16641
420.3696	101.1228
420.5352	98.16881
420.7007	99.41771
420.8663	102.0724
421.0319	108.8294
421.1974	101.415
421.3629	104.8695
421.5285	105.4319
421.694	99.57541
421.8595	103.377
422.0251	102.9572
422.1906	102.6025
422.3561	97.2515
422.5216	92.16927
422.6871	89.24135
422.8526	98.55582
423.0181	103.1979
423.1835	113.9098
423.349	111.9729
423.5145	109.6759
423.68	100.8732
423.8454	97.62074
424.0109	106.8685
424.1763	100.4239
424.3418	107.3581
424.5072	109.0738
424.6726	104.5774
424.838	102.7254
425.0035	101.3705
425.1689	107.7086
425.3343	110.9464
425.4997	112.8949
425.6651	106.4232
425.8305	103.7734
425.9959	99.56337
426.1613	103.3091
426.3267	108.3057
426.492	117.5144
426.6574	109.4326
426.8228	108.3771
426.9881	99.41235
427.1534	96.43723
427.3188	94.70502
427.4841	102.4082
427.6495	110.6779
427.8148	110.7835
427.9801	106.2951
428.1454	104.6084
428.3107	105.7761
428.476	107.1733
428.6414	105.101
428.8066	102.5202
428.9719	105.3215
429.1372	108.3785
429.3025	100.8793
429.4678	105.0763
429.633	100.1368
429.7983	94.58012
429.9636	92.11887
430.1288	95.55905
430.294	92.81302
430.4593	90.75375
430.6245	84.01525
430.7897	85.89627
430.955	90.23856
431.1202	93.39669
431.2854	99.96508
431.4506	108.8079
431.6158	120.6231
431.781	124.5997
431.9462	121.8922
432.1114	116.0257
432.2766	110.4683
432.4417	106.7915
432.6069	104.1395
432.772	105.5766
432.9372	116.3165
433.1024	123.9252
433.2675	125.7652
433.4326	118.9885
433.5977	119.883
433.7629	110.8786
433.928	103.5118
434.0931	101.5634
434.2582	102.3201
434.4233	109.7343
434.5884	121.3162
434.7535	115.3208
434.9186	112.2024
435.0837	123.6693
435.2488	115.5895
435.4138	114.1849
435.5789	123.0719
435.744	123.9589
435.909	123.5499
436.0741	122.5335
436.2391	133.8585
436.4042	128.9505
436.5692	125.4784
436.7342	127.3588
436.8992	124.6662
437.0643	127.6202
437.2293	130.142
437.3943	122.7262
437.5593	122.9553
437.7243	121.5092
437.8893	127.7549
438.0542	132.9841
438.2192	124.2087
438.3842	117.9915
438.5491	118.3246
438.7141	117.4646
438.8791	122.7016
439.044	125.5623
439.209	122.2695
439.3739	125.2102
439.5388	128.8789
439.7037	131.0666
439.8687	126.4147
440.0336	134.589
440.1985	136.3989
440.3634	129.9879
440.5283	125.9052
440.6932	124.1023
440.8581	131.701
441.0229	142.8809
441.1878	140.8652
441.3527	141.1008
441.5175	136.4763
441.6824	134.3094
441.8472	138.934
442.0121	144.7243
442.1769	144.8975
442.3418	140.3577
442.5066	145.0155
442.6714	146.5304
442.8362	143.6262
443.001	131.0003
443.1659	136.4568
443.3307	136.4397
443.4955	137.4899
443.6602	137.5922
443.825	142.1298
443.9898	143.2052
444.1546	143.7436
444.3193	143.1315
444.4841	143.7506
444.6488	141.8773
444.8136	143.9441
444.9783	141.3893
445.1431	143.3875
445.3078	144.3102
445.4725	137.703
445.6372	130.5898
445.802	125.6067
445.9667	136.4551
446.1314	137.669
446.2961	136.2495
446.4608	139.5427
446.6255	138.0944
446.7901	142.2567
446.9548	142.0488
447.1195	139.9857
447.2841	151.3196
447.4488	148.0329
447.6134	144.6299
447.7781	145.2664
447.9427	143.5673
448.1074	144.6547
448.272	142.7579
448.4366	142.153
448.6012	153.4499
448.7658	153.3212
448.9305	147.3622
449.095	147.1917
449.2596	151.2751
449.4242	142.1045
449.5888	145.3106
449.7534	146.7626
449.9179	145.2018
450.0825	152.0048
450.2471	147.9094
450.4116	156.8669
450.5762	164.8039
450.7407	160.2126
450.9052	153.7159
451.0698	161.2279
451.2343	160.8078
451.3988	155.9185
451.5633	158.0773
451.7278	156.5652
451.8923	159
452.0568	162.3416
452.2213	154.2801
452.3858	150.7774
452.5503	159.1851
452.7148	159.1761
452.8792	146.5352
453.0437	143.0892
453.2081	150.1374
453.3726	154.1548
453.537	154.7599
453.7015	159.3374
453.8659	161.8827
454.0303	161.9813
454.1947	165.0466
454.3592	170.8763
454.5236	163.6944
454.688	166.9224
454.8524	161.4867
455.0168	161.8218
455.1811	159.4616
455.3455	163.3078
455.5099	159.2178
455.6743	164.3784
455.8386	168.5406
456.003	169.2935
456.1673	170.5782
456.3317	165.985
456.496	161.0879
456.6603	169.0508
456.8246	173.621
456.989	174.9772
457.1533	177.3925
457.3176	168.2548
457.4819	167.9489
457.6462	171.1337
457.8105	168.2837
457.9748	164.5606
458.1391	163.4445
458.3033	162.6626
458.4676	163.9928
458.6319	163.8823
458.7961	168.7504
458.9604	167.8662
459.1246	167.5611
459.2888	173.3724
459.4531	162.6012
459.6173	160.248
459.7815	160.9065
459.9457	167.4916
460.11	174.5228
460.2741	166.5078
460.4384	164.5538
460.6025	166.4072
460.7667	172.945
460.9309	170.6334
461.0951	173.4827
461.2592	170.8759
461.4234	167.0074
461.5876	171.9166
461.7517	167.8344
461.9159	171.6784
462.08	174.3018
462.2441	175.7497
462.4082	177.6134
462.5724	179.7126
462.7365	167.5424
462.9006	167.7507
463.0647	173.6844
463.2288	169.048
463.3929	166.92
463.557	171.4402
463.721	175.1998
463.8851	170.5008
464.0492	172.5783
464.2132	168.2889
464.3773	172.391
464.5414	166.5798
464.7054	158.4479
464.8694	165.0021
465.0334	161.3675
465.1975	166.1169
465.3615	178.7771
465.5255	173.4309
465.6895	167.5652
465.8535	180.0803
466.0175	177.8876
466.1815	176.8993
466.3455	164.6697
466.5095	167.7007
466.6734	165.2236
466.8374	161.998
467.0014	161.8849
467.1653	170.1637
467.3293	170.3266
467.4932	175.6981
467.6571	177.8802
467.8211	176.5894
467.985	173.0235
468.1489	176.1247
468.3128	173.0305
468.4767	172.8554
468.6406	172.7007
468.8045	174.8252
468.9684	172.3716
469.1323	180.8362
469.2962	178.9438
469.46	184.3682
469.6239	187.3698
469.7878	184.7455
469.9516	180.4276
470.1154	175.6512
470.2793	172.863
470.4431	175.4164
470.607	174.7703
470.7708	176.4099
470.9346	184.1979
471.0984	177.308
471.2622	174.3961
471.426	172.2233
471.5898	180.1718
471.7536	182.4449
471.9174	182.1413
472.0811	185.5829
472.2449	187.3901
472.4087	189.0433
472.5724	188.1711
472.7362	180.0357
472.8999	178.4284
473.0637	179.5326
473.2274	179.6165
473.3911	181.2374
473.5548	181.2637
473.7185	181
473.8822	182.5409
474.0459	186.886
474.2096	191.2811
474.3733	184.296
474.537	190.5578
474.7007	191.3961
474.8643	192.136
475.028	186.369
475.1917	182.3952
475.3553	189.708
475.519	185.538
475.6826	187.258
475.8463	189.9566
476.0099	191.8221
476.1735	183.1886
476.3371	177.7621
476.5007	182.7617
476.6643	184.6789
476.8279	186.0107
476.9915	183.3025
477.1551	176.2075
477.3187	182.4511
477.4823	194.5778
477.6458	192.3996
477.8094	190.9621
477.9729	190.9215
478.1365	186.8002
478.3	186.0653
478.4636	192.9119
478.6271	188.4805
478.7906	189.8134
478.9541	190.1108
479.1176	183.9253
479.2812	186.8124
479.4447	192.18
479.6082	194.0703
479.7716	192.0668
479.9351	189.0488
480.0986	185.8956
480.2621	188.8201
480.4255	191.1734
480.589	190.1645
480.7524	183.0216
480.9159	185.8492
481.0793	185.6393
481.2428	194.0663
481.4062	196.7948
481.5696	193.5233
481.733	191.1919
481.8964	191.281
482.0598	182.8866
482.2232	185.9256
482.3866	191.097
482.55	186.9364
482.7134	189.3561
482.8768	187.8724
483.0401	184.4537
483.2035	189.1093
483.3668	191.1144
483.5302	184.8208
483.6935	183.2923
483.8568	182.0247
484.0202	184.8266
484.1835	177.9029
484.3468	181.5411
484.5101	182.7161
484.6734	183.422
484.8367	187.6838
485	190.4595
485.1633	188.0798
485.3266	183.8929
485.4899	182.1647
485.6531	180.0458
485.8164	174.2749
485.9796	162.3526
486.1429	153.0153
486.3061	156.9127
486.4694	173.9185
486.6326	187.811
486.7958	182.6266
486.959	178.452
487.1223	176.7487
487.2855	178.6366
487.4486	181.1751
487.6118	184.3492
487.775	186.8947
487.9382	189.8106
488.1014	194.4716
488.2646	195.9537
488.4277	193.6972
488.5909	189.3368
488.754	185.1812
488.9171	184.3941
489.0803	182.3398
489.2434	191.1618
489.4066	196.5294
489.5697	195.971
489.7328	205.7468
489.8959	202.4514
490.059	201.495
490.2221	193.7347
490.3852	194.8159
490.5482	202.7032
490.7113	200.8188
490.8744	200.7238
491.0374	202.0626
491.2005	197.9014
491.3636	196.2653
491.5266	201.1232
491.6896	204.0748
491.8527	189.3405
492.0157	190.2646
492.1787	186.9875
492.3417	185.8168
492.5047	191.6194
492.6677	200.6669
492.8307	203.077
492.9937	203.8589
493.1567	200.3394
493.3196	205.5366
493.4826	209.5719
493.6456	198.8812
493.8085	193.5246
493.9715	194.1249
494.1344	198.2261
494.2974	200.4721
494.4603	199.0992
494.6232	201.8266
494.7861	204.8281
494.949	204.8068
495.1119	207.5493
495.2748	209.4325
495.4377	205.1061
495.6006	200.0782
495.7635	204.9241
495.9264	201.9207
496.0892	202.6152
496.2521	202.8282
496.4149	209.8779
496.5778	203.7828
496.7407	203.365
496.9035	198.6381
497.0663	201.6668
497.2291	200.6949
497.3919	209.0749
497.5547	206.8105
497.7176	204.023
497.8804	206.7992
498.0432	202.9576
498.2059	197.1116
498.3687	195.146
498.5315	194.0501
498.6942	194.5381
498.857	201.3054
499.0198	207.0647
499.1825	205.9649
499.3452	196.0209
499.508	200.3625
499.6707	201.846
499.8334	198.0121
499.9962	204.4702
500.1589	201.0042
500.3216	204.043
500.4843	199.9662
500.6469	194.2419
500.8096	197.7167
500.9723	203.2577
501.135	196.3852
501.2976	190.5828
501.4603	192.6233
501.623	190.5614
501.7856	195.3028
501.9482	202.3271
502.1109	200.4979
502.2735	203.2655
502.4361	203.8744
502.5987	198.119
502.7614	195.5391
502.924	200.9278
503.0865	213.1516
503.2491	210.0366
503.4117	205.8208
503.5743	208.832
503.7368	206.7889
503.8994	202.9386
504.062	193.7573
504.2245	194.5816
504.3871	195.7001
504.5496	207.9096
504.7121	209.3448
504.8746	210.1137
505.0372	205.8704
505.1997	198.3717
505.3622	208.0377
505.5247	214.7761
505.6872	210.2019
505.8497	211.068
506.0121	213.1773
506.1746	217.6759
506.3371	212.842
506.4995	208.5742
506.662	208.6301
506.8244	207.3945
506.9869	212.1149
507.1493	216.5607
507.3117	211.8383
507.4742	212.1652
507.6366	213.7145
507.799	217.7353
507.9614	206.52
508.1238	205.9493
508.2862	201.0926
508.4485	214.2829
508.6109	216.4778
508.7733	207.0091
508.9357	212.1574
509.098	214.2935
509.2604	220.0763
509.4227	219.0312
509.5851	215.3363
509.7474	213.2201
509.9097	209.3837
510.072	213.8683
510.2343	214.3901
510.3966	216.8157
510.5589	222.5318
510.7212	224.5911
510.8835	215.0606
511.0458	216.6385
511.2081	221.322
511.3703	218.6407
511.5326	220.1384
511.6949	223.1602
511.8571	220.0383
512.0193	213.7896
512.1816	214.7625
512.3438	214.7554
512.506	205.7963
512.6682	217.2133
512.8304	214.3876
512.9926	206.6308
513.1548	206.0158
513.317	217.668
513.4792	216.197
513.6414	210.4971
513.8035	217.0504
513.9657	212.7608
514.1279	211.1842
514.29	208.3724
514.4521	214.0523
514.6143	212.6274
514.7764	211.9998
514.9385	215.2731
515.1006	216.2636
515.2628	215.8304
515.4249	208.6879
515.587	209.4679
515.7491	211.3467
515.9111	210.2343
516.0732	216.6984
516.2353	214.9385
516.3973	207.0793
