SPECTRUM DATA FILE
SpectrumCount:	1
PixelCount:	3648
UserName:	ToughBook User
SampleName:	
LightSource:	
Comments:	
DeviceName:	Qwave
DeviceManufacturer:	Broadcom
DeviceSerialNo:	11311

Name:	last spectrum
Date:	2024-05-02T14:49:01.1215216+02:00
ExposureTime:	0.02
TemporalAvg:	1
IntensityUnit:	normalizedCounts
CCDLoadLevel:	0.06753083
Temperature:	31.82086
DiagramColor:	200
ProcessingSteps:	335

Wavelength [nm]	Intensity1
334.421	32.29577
334.5891	31.88709
334.7573	27.722
334.9254	28.84028
335.0935	27.27299
335.2616	25.72031
335.4297	27.83883
335.5978	28.0494
335.7659	30.51263
335.934	24.17793
336.1021	23.11993
336.2701	26.57128
336.4382	32.52515
336.6063	30.06411
336.7744	32.50837
336.9424	31.78053
337.1105	28.80234
337.2785	28.88141
337.4466	27.83119
337.6146	22.22269
337.7827	28.14648
337.9507	26.13415
338.1187	29.41366
338.2867	30.46057
338.4548	30.62815
338.6228	26.77695
338.7908	29.27564
338.9588	24.92936
339.1268	30.4215
339.2948	29.23402
339.4628	29.31101
339.6308	30.24665
339.7988	30.80937
339.9667	27.19365
340.1347	29.48539
340.3027	29.69305
340.4707	27.03176
340.6386	22.7429
340.8066	26.69415
340.9745	22.79231
341.1425	25.29027
341.3104	29.0535
341.4784	22.76448
341.6463	29.20992
341.8142	32.57428
341.9821	27.87451
342.1501	24.83435
342.318	26.00885
342.4859	23.65496
342.6538	29.14149
342.8217	29.25619
342.9896	30.53602
343.1575	30.72086
343.3254	31.28232
343.4933	30.32084
343.6612	33.75903
343.829	33.38465
343.9969	30.99964
344.1648	29.7051
344.3326	24.75189
344.5005	28.32173
344.6683	29.22855
344.8362	32.0055
345.004	32.10648
345.1719	34.84747
345.3397	28.65693
345.5075	30.22238
345.6754	31.32071
345.8432	28.02355
346.011	28.04649
346.1788	31.16104
346.3466	28.91686
346.5144	35.0185
346.6822	36.32697
346.85	33.00773
347.0178	29.73536
347.1856	27.24424
347.3534	27.25663
347.5211	33.07589
347.6889	32.54202
347.8567	29.88573
348.0244	32.56242
348.1922	31.77465
348.3599	27.41145
348.5277	28.8101
348.6954	31.51055
348.8632	32.73433
349.0309	31.5519
349.1986	30.10836
349.3663	32.49832
349.5341	30.31048
349.7018	29.80508
349.8695	36.24229
350.0372	30.68119
350.2049	34.28661
350.3726	33.67961
350.5403	32.13429
350.7079	29.58923
350.8756	28.94647
351.0433	30.31054
351.211	25.36646
351.3786	27.14305
351.5463	34.64175
351.714	35.19079
351.8816	32.41768
352.0493	30.06653
352.2169	33.85095
352.3846	30.53848
352.5522	34.14956
352.7198	30.572
352.8875	30.32154
353.0551	34.08659
353.2227	33.23373
353.3903	33.91998
353.5579	32.60644
353.7255	35.8927
353.8931	37.11459
354.0607	31.69625
354.2283	36.56723
354.3958	38.36641
354.5634	32.56838
354.731	31.61163
354.8986	33.69245
355.0661	40.05278
355.2337	39.27199
355.4012	37.87658
355.5688	34.60725
355.7363	32.61277
355.9039	37.14511
356.0714	34.5586
356.239	38.12992
356.4065	37.44627
356.574	33.81912
356.7415	32.96564
356.909	29.95599
357.0765	31.55058
357.244	31.08145
357.4115	33.94601
357.579	36.97379
357.7465	35.97319
357.914	29.94581
358.0815	28.31566
358.249	29.50949
358.4164	29.29455
358.5839	33.7307
358.7513	28.77842
358.9188	31.62785
359.0862	34.47433
359.2537	33.25466
359.4211	33.5926
359.5886	34.51096
359.756	38.34006
359.9234	36.38462
360.0909	39.33688
360.2583	35.20966
360.4257	36.1232
360.5931	30.6121
360.7605	32.34053
360.9279	33.11633
361.0953	35.77073
361.2627	34.79895
361.4301	33.87298
361.5974	35.04988
361.7648	32.18936
361.9322	30.83333
362.0995	35.53333
362.2669	36.20663
362.4343	35.98544
362.6016	41.92264
362.769	39.63179
362.9363	40.82469
363.1036	39.31248
363.271	38.93784
363.4383	35.87164
363.6056	34.58276
363.7729	31.2015
363.9402	39.74921
364.1075	43.84635
364.2748	42.99765
364.4421	40.3322
364.6094	40.33383
364.7767	38.57935
364.944	41.08691
365.1113	41.44914
365.2786	36.14989
365.4458	43.03798
365.6131	39.56559
365.7803	40.2479
365.9476	43.70087
366.1148	43.24186
366.2821	42.33842
366.4493	43.04879
366.6166	40.46763
366.7838	43.80867
366.951	41.18836
367.1182	45.54493
367.2855	40.15622
367.4527	37.21213
367.6199	42.52379
367.7871	38.92892
367.9543	39.41029
368.1215	35.28026
368.2886	38.82793
368.4558	39.35152
368.623	37.57437
368.7902	39.05828
368.9573	42.46796
369.1245	45.22001
369.2917	45.42245
369.4588	45.57148
369.6259	41.19479
369.7931	42.78103
369.9602	43.02911
370.1274	44.9711
370.2945	44.77882
370.4616	41.28252
370.6287	40.93913
370.7958	36.49989
370.963	38.38436
371.1301	44.6025
371.2971	42.93927
371.4643	45.42874
371.6313	42.02986
371.7984	42.96217
371.9655	42.83316
372.1326	42.75038
372.2997	45.55145
372.4667	47.24206
372.6338	46.01529
372.8008	42.64988
372.9679	42.91165
373.1349	36.1957
373.3019	40.67049
373.469	39.98122
373.636	44.77961
373.803	48.49836
373.9701	45.20534
374.1371	46.36037
374.3041	41.07712
374.4711	40.25071
374.6381	45.26893
374.8051	38.79706
374.9721	42.82011
375.1391	45.25279
375.3061	51.23044
375.473	48.34908
375.64	46.39054
375.8069	48.45372
375.9739	47.51056
376.1409	48.14278
376.3078	50.0699
376.4748	47.10301
376.6417	38.57644
376.8087	47.09734
376.9756	41.4417
377.1425	43.08703
377.3094	45.35962
377.4763	52.32827
377.6432	53.78486
377.8102	48.88906
377.9771	52.05827
378.144	54.49048
378.3109	48.09251
378.4777	48.41706
378.6446	48.5914
378.8115	49.01595
378.9784	40.53784
379.1452	43.00394
379.3121	47.30295
379.4789	44.41987
379.6458	42.63084
379.8127	43.2216
379.9795	44.81571
380.1463	48.16612
380.3131	52.26906
380.48	50.36456
380.6468	47.59589
380.8136	49.03718
380.9804	47.80299
381.1472	46.82795
381.314	49.35863
381.4808	44.38002
381.6476	45.10589
381.8144	47.53601
381.9812	50.22644
382.148	47.47351
382.3147	40.30624
382.4815	43.14212
382.6483	42.05867
382.815	38.2326
382.9818	41.98432
383.1485	42.94473
383.3153	46.4118
383.482	45.51942
383.6487	44.74218
383.8155	43.51271
383.9822	48.06806
384.1489	46.85952
384.3156	49.61855
384.4823	50.7307
384.649	55.53199
384.8157	57.0715
384.9824	53.68388
385.1491	56.1594
385.3158	51.95982
385.4825	49.63976
385.6491	55.42508
385.8158	48.91948
385.9825	50.5746
386.1491	55.79104
386.3157	55.57741
386.4824	54.89765
386.649	58.04768
386.8157	52.11969
386.9823	51.87136
387.1489	59.26644
387.3156	48.59439
387.4821	52.79977
387.6488	56.00454
387.8154	55.04701
387.982	54.41881
388.1486	47.66009
388.3152	51.88746
388.4818	49.71613
388.6483	50.29178
388.8149	53.74271
388.9815	56.39063
389.148	55.27832
389.3146	57.71314
389.4811	60.13876
389.6477	59.30189
389.8142	57.19101
389.9808	59.73246
390.1473	57.4049
390.3138	53.7417
390.4804	58.67289
390.6469	55.21386
390.8134	53.80499
390.9799	59.18393
391.1464	59.64275
391.3129	58.72733
391.4794	62.70746
391.6459	63.25237
391.8124	58.55506
391.9789	59.51089
392.1453	52.93385
392.3118	55.20234
392.4782	57.12383
392.6447	54.50103
392.8112	54.8962
392.9776	48.3511
393.144	45.0976
393.3105	43.61674
393.4769	45.24609
393.6433	47.74863
393.8098	50.35159
393.9762	52.34313
394.1426	58.23376
394.309	56.81819
394.4754	62.56513
394.6418	64.58913
394.8082	65.12708
394.9746	65.72542
395.141	63.41852
395.3073	66.12633
395.4737	64.39013
395.64	67.10531
395.8064	68.61131
395.9728	65.3681
396.1391	60.21495
396.3055	54.7878
396.4718	50.02869
396.6381	52.20605
396.8045	50.6126
396.9708	47.78439
397.1371	52.14083
397.3034	58.24459
397.4697	62.92229
397.636	63.99444
397.8023	70.75201
397.9686	72.41618
398.1349	76.93664
398.3012	73.93268
398.4675	77.45459
398.6337	77.54584
398.8	72.86443
398.9662	74.13625
399.1325	78.29798
399.2988	79.38249
399.465	76.09535
399.6313	70.3938
399.7975	77.55746
399.9637	76.81741
400.1299	81.25487
400.2961	80.07438
400.4624	78.46794
400.6286	81.7002
400.7948	80.10207
400.961	75.58502
401.1272	77.713
401.2934	78.88822
401.4595	81.30971
401.6257	89.80549
401.7919	82.23096
401.9581	75.29667
402.1242	78.94215
402.2904	85.50224
402.4565	82.68609
402.6227	84.62837
402.7888	77.47727
402.955	82.13716
403.1211	81.99577
403.2872	81.24309
403.4533	76.601
403.6194	78.96526
403.7856	84.4028
403.9517	88.10315
404.1177	84.11977
404.2838	81.58018
404.4499	76.78215
404.616	73.95421
404.7821	68.93224
404.9482	81.61658
405.1142	82.96391
405.2803	79.0012
405.4464	75.40501
405.6124	80.16586
405.7784	79.21267
405.9445	78.16764
406.1105	79.72992
406.2766	80.04137
406.4426	79.5181
406.6086	79.20566
406.7746	82.92622
406.9406	83.7945
407.1066	88.07628
407.2726	81.06576
407.4386	85.56789
407.6046	84.38785
407.7706	89.76284
407.9366	88.34706
408.1025	88.64329
408.2685	89.68889
408.4344	89.59147
408.6004	94.49509
408.7664	90.8158
408.9323	98.7461
409.0983	100.154
409.2642	100.1672
409.4301	99.77995
409.596	102.5715
409.762	93.66279
409.9279	88.65348
410.0938	85.39893
410.2597	91.42424
410.4256	95.89825
410.5915	94.63571
410.7574	96.30025
410.9232	92.97646
411.0891	95.9303
411.255	94.46692
411.4209	96.47348
411.5867	101.1936
411.7526	98.77988
411.9184	97.27307
412.0843	95.73657
412.2501	97.92059
412.4159	100.9611
412.5818	96.03674
412.7476	95.23301
412.9134	96.55378
413.0792	103.9026
413.245	91.44772
413.4108	91.82629
413.5766	98.49884
413.7424	106.0436
413.9082	108.2511
414.074	98.12591
414.2397	97.63962
414.4055	94.38478
414.5713	100.9952
414.737	106.843
414.9028	107.6415
415.0685	107.8976
415.2343	98.25112
415.4	98.54234
415.5658	98.55085
415.7315	98.92808
415.8972	104.4798
416.0629	106.9495
416.2286	105.9374
416.3943	103.7028
416.56	99.94887
416.7257	98.86697
416.8914	102.2099
417.0571	93.71835
417.2228	97.32691
417.3884	98.32053
417.5541	88.17232
417.7198	92.9478
417.8854	100.9397
418.0511	94.57586
418.2167	92.13189
418.3824	99.06355
418.548	97.39784
418.7136	96.91402
418.8792	97.06343
419.0449	103.3269
419.2105	105.5055
419.3761	106.1177
419.5417	105.9109
419.7073	103.4603
419.8729	104.335
420.0385	101.1364
420.204	97.1861
420.3696	100.2741
420.5352	107.6013
420.7007	109.3344
420.8663	111.0022
421.0319	108.4609
421.1974	112.2707
421.3629	116.9125
421.5285	112.901
421.694	102.6995
421.8595	110.6546
422.0251	118.2883
422.1906	119.6019
422.3561	111.2154
422.5216	101.6732
422.6871	96.87769
422.8526	101.1457
423.0181	108.4491
423.1835	117.4693
423.349	116.6269
423.5145	114.6936
423.68	113.7579
423.8454	110.2372
424.0109	110.2183
424.1763	114.2905
424.3418	116.9165
424.5072	124.2777
424.6726	116.9408
424.838	114.5506
425.0035	108.977
425.1689	112.1278
425.3343	112.6556
425.4997	115.6064
425.6651	114.9767
425.8305	112.814
425.9959	102.1541
426.1613	107.2536
426.3267	118.116
426.492	114.0058
426.6574	112.1699
426.8228	119.1088
426.9881	108.2168
427.1534	105.3939
427.3188	108.062
427.4841	112.1829
427.6495	114.2246
427.8148	119.8501
427.9801	113.2601
428.1454	119.4292
428.3107	125.8992
428.476	119.3729
428.6414	114.7759
428.8066	114.2452
428.9719	109.0905
429.1372	105.3016
429.3025	108.5245
429.4678	114.2352
429.633	111.4739
429.7983	98.75667
429.9636	101.6383
430.1288	98.58655
430.294	95.60982
430.4593	97.78572
430.6245	99.55797
430.7897	94.56943
430.955	95.10015
431.1202	95.21583
431.2854	105.021
431.4506	110.8577
431.6158	117.0103
431.781	130.0779
431.9462	131.4498
432.1114	123.8019
432.2766	115.0989
432.4417	109.3382
432.6069	106.2423
432.772	110.0684
432.9372	121.8395
433.1024	123.8117
433.2675	125.8558
433.4326	128.2325
433.5977	126.9616
433.7629	110.8967
433.928	110.6551
434.0931	109.4128
434.2582	112.7645
434.4233	115.3967
434.5884	123.9052
434.7535	130.8156
434.9186	130.5935
435.0837	129.1593
435.2488	122.2964
435.4138	123.5075
435.5789	129.681
435.744	128.487
435.909	133.7768
436.0741	137.646
436.2391	140.1825
436.4042	141.9977
436.5692	138.1813
436.7342	141.3944
436.8992	133.8625
437.0643	133.6306
437.2293	137.2115
437.3943	128.7775
437.5593	134.4997
437.7243	142.5161
437.8893	138.9277
438.0542	139.0773
438.2192	130.6985
438.3842	124.937
438.5491	124.0459
438.7141	132.0394
438.8791	131.0891
439.044	134.888
439.209	134.29
439.3739	137.6694
439.5388	145.5253
439.7037	145.4414
439.8687	146.1712
440.0336	143.7878
440.1985	143.0992
440.3634	127.8503
440.5283	138.5033
440.6932	136.2092
440.8581	148.1459
441.0229	151.0828
441.1878	152.1948
441.3527	148.4576
441.5175	143.9136
441.6824	141.3944
441.8472	153.0556
442.0121	149.1905
442.1769	155.6176
442.3418	151.5631
442.5066	155.983
442.6714	149.8245
442.8362	152.5066
443.001	156.7646
443.1659	156.348
443.3307	146.8574
443.4955	146.8264
443.6602	148.6267
443.825	153.6994
443.9898	152.1712
444.1546	146.3372
444.3193	150.8143
444.4841	155.0996
444.6488	154.082
444.8136	156.0205
444.9783	149.8021
445.1431	161.0457
445.3078	149.3536
445.4725	150.5475
445.6372	147.6974
445.802	145.133
445.9667	142.888
446.1314	149.2295
446.2961	154.2233
446.4608	150.306
446.6255	155.4823
446.7901	152.2552
446.9548	143.8246
447.1195	151.9732
447.2841	159.7608
447.4488	163.4759
447.6134	162.7248
447.7781	164.058
447.9427	155.6794
448.1074	154.3822
448.272	153.8818
448.4366	160.3412
448.6012	165.4742
448.7658	169.6637
448.9305	157.8467
449.095	159.225
449.2596	160.4952
449.4242	155.7177
449.5888	161.0043
449.7534	164.0647
449.9179	162.3826
450.0825	158.8661
450.2471	164.5492
450.4116	174.1117
450.5762	175.6064
450.7407	173.0036
450.9052	179.3837
451.0698	176.4069
451.2343	177.2108
451.3988	169.6029
451.5633	169.6326
451.7278	171.8627
451.8923	171.1916
452.0568	172.7048
452.2213	172.1422
452.3858	169.3727
452.5503	163.9734
452.7148	160.9205
452.8792	161.4893
453.0437	161.919
453.2081	159.7652
453.3726	160.821
453.537	162.1129
453.7015	171.233
453.8659	178.2047
454.0303	175.1698
454.1947	180.606
454.3592	176.2218
454.5236	176.8444
454.688	170.9246
454.8524	167.5291
455.0168	167.9978
455.1811	173.1975
455.3455	177.8648
455.5099	182.6702
455.6743	174.3373
455.8386	180.3053
456.003	183.286
456.1673	182.9681
456.3317	180.7874
456.496	180.5467
456.6603	182.7519
456.8246	179.0603
456.989	181.8969
457.1533	178.5431
457.3176	183.9971
457.4819	191.7812
457.6462	189.8562
457.8105	185.94
457.9748	183.4106
458.1391	187.7639
458.3033	182.1929
458.4676	173.8761
458.6319	177.3232
458.7961	181.5762
458.9604	178.4695
459.1246	185.241
459.2888	183.8578
459.4531	180.6489
459.6173	183.5927
459.7815	179.5128
459.9457	179.0874
460.11	177.084
460.2741	177.2972
460.4384	182.3669
460.6025	184.7351
460.7667	180.9416
460.9309	186.4169
461.0951	192.2973
461.2592	186.2958
461.4234	186.088
461.5876	191.7754
461.7517	189.1785
461.9159	193.4758
462.08	183.3093
462.2441	176.4006
462.4082	187.4989
462.5724	185.552
462.7365	186.4308
462.9006	186.6963
463.0647	183.936
463.2288	189.4912
463.3929	182.2968
463.557	184.7122
463.721	178.7231
463.8851	174.9212
464.0492	186.9071
464.2132	186.6294
464.3773	183.7137
464.5414	176.5396
464.7054	174.6187
464.8694	181.8634
465.0334	184.0446
465.1975	186.4097
465.3615	190.0485
465.5255	179.4055
465.6895	183.4168
465.8535	194.4499
466.0175	191.5728
466.1815	189.4688
466.3455	180.8705
466.5095	185.2694
466.6734	176.3207
466.8374	172.5549
467.0014	178.2018
467.1653	182.1856
467.3293	193.6514
467.4932	191.352
467.6571	189.9796
467.8211	186.6353
467.985	190.3812
468.1489	191.3774
468.3128	194.6842
468.4767	195.0372
468.6406	189.0039
468.8045	190.4572
468.9684	192.1323
469.1323	190.0706
469.2962	189.4646
469.46	184.2147
469.6239	193.0542
469.7878	192.1661
469.9516	192.364
470.1154	186.5275
470.2793	191.4331
470.4431	188.4995
470.607	190.4798
470.7708	184.7275
470.9346	190.4077
471.0984	189.747
471.2622	192.6233
471.426	198.6218
471.5898	195.1529
471.7536	191.8312
471.9174	204.5804
472.0811	207.4688
472.2449	205.665
472.4087	203.8791
472.5724	198.0493
472.7362	195.3247
472.8999	194.0203
473.0637	199.307
473.2274	198.5295
473.3911	191.3646
473.5548	189.8984
473.7185	194.9504
473.8822	197.2387
474.0459	193.1747
474.2096	197.3934
474.3733	201.4408
474.537	207.9171
474.7007	203.4371
474.8643	202.2983
475.028	199.4308
475.1917	204.6852
475.3553	207.9864
475.519	201.2417
475.6826	198.2461
475.8463	202.0561
476.0099	203.3511
476.1735	201.1281
476.3371	198.8293
476.5007	196.5172
476.6643	194.1979
476.8279	192.3981
476.9915	199.0132
477.1551	200.3234
477.3187	198.8736
477.4823	204.2573
477.6458	207.9084
477.8094	209.9775
477.9729	204.8199
478.1365	208.001
478.3	206.2157
478.4636	200.5038
478.6271	204.8167
478.7906	203.8386
478.9541	194.0075
479.1176	202.6993
479.2812	204.4736
479.4447	206.7942
479.6082	208.7446
479.7716	202.1836
479.9351	206.2359
480.0986	203.262
480.2621	205.1621
480.4255	204.7521
480.589	199.8333
480.7524	201.7235
480.9159	198.8473
481.0793	205.2596
481.2428	203.4441
481.4062	199.1091
481.5696	197.8086
481.733	206.4364
481.8964	207.5301
482.0598	206.5406
482.2232	205.4846
482.3866	209.6991
482.55	201.9714
482.7134	203.5342
482.8768	204.8406
483.0401	203.4405
483.2035	201.2653
483.3668	201.7792
483.5302	205.122
483.6935	205.8512
483.8568	204.9672
484.0202	197.2403
484.1835	202.4849
484.3468	198.2767
484.5101	197.4405
484.6734	203.5746
484.8367	202.5112
485	201.1968
485.1633	202.9234
485.3266	205.2368
485.4899	195.4236
485.6531	194.3815
485.8164	184.3171
485.9796	175.3792
486.1429	170.2868
486.3061	165.4161
486.4694	178.0384
486.6326	194.1356
486.7958	196.4357
486.959	201.152
487.1223	196.9433
487.2855	192.2371
487.4486	200.6327
487.6118	200.7277
487.775	198.4449
487.9382	207.6973
488.1014	208.8678
488.2646	215.731
488.4277	207.7063
488.5909	203.7654
488.754	200.1167
488.9171	198.5327
489.0803	196.9315
489.2434	196.7118
489.4066	206.3552
489.5697	215.8219
489.7328	218.0275
489.8959	216.7064
490.059	212.2141
490.2221	213.7173
490.3852	214.4878
490.5482	211.0967
490.7113	216.1461
490.8744	211.3184
491.0374	205.3915
491.2005	203.3817
491.3636	208.6107
491.5266	215.8874
491.6896	210.7441
491.8527	202.7482
492.0157	204.0057
492.1787	203.9483
492.3417	203.466
492.5047	210.6806
492.6677	215.0891
492.8307	217.8602
492.9937	219.7504
493.1567	219.8145
493.3196	216.0764
493.4826	213.2858
493.6456	204.9866
493.8085	204.6178
493.9715	210.1027
494.1344	215.0101
494.2974	213.888
494.4603	223.9394
494.6232	219.1575
494.7861	219.283
494.949	228.7372
495.1119	222.8635
495.2748	220.4802
495.4377	217.9924
495.6006	214.6186
495.7635	204.4109
495.9264	211.3535
496.0892	211.5767
496.2521	212.4757
496.4149	217.3674
496.5778	220.133
496.7407	217.0854
496.9035	216.938
497.0663	224.3419
497.2291	223.0798
497.3919	228.3627
497.5547	231.2574
497.7176	218.4047
497.8804	217.2163
498.0432	217.7646
498.2059	211.1948
498.3687	207.556
498.5315	215.6367
498.6942	211.5483
498.857	217.5199
499.0198	221.2859
499.1825	219.7252
499.3452	217.6691
499.508	218.7468
499.6707	221.7254
499.8334	218.8135
499.9962	225.2132
500.1589	223.6243
500.3216	214.6919
500.4843	212.3441
500.6469	216.1445
500.8096	207.8472
500.9723	217.8409
501.135	218.237
501.2976	204.7034
501.4603	202.4432
501.623	213.1166
501.7856	213.7337
501.9482	213.3677
502.1109	214.6902
502.2735	216.7575
502.4361	226.2981
502.5987	215.2139
502.7614	213.7115
502.924	214.775
503.0865	218.2867
503.2491	227.265
503.4117	224.2405
503.5743	218.6436
503.7368	217.1569
503.8994	216.4343
504.062	210.9758
504.2245	209.7334
504.3871	216.0784
504.5496	226.6448
504.7121	221.5762
504.8746	216.0926
505.0372	214.2743
505.1997	211.3378
505.3622	226.1731
505.5247	232.6623
505.6872	233.4916
505.8497	228.8608
506.0121	228.2606
506.1746	231.6361
506.3371	234.4503
506.4995	231.0534
506.662	229.9573
506.8244	226.4114
506.9869	226.5336
507.1493	230.9226
507.3117	229.2209
507.4742	226.8228
507.6366	226.3305
507.799	228.7108
507.9614	228.6611
508.1238	218.7009
508.2862	220.961
508.4485	223.7021
508.6109	223.2857
508.7733	226.5448
508.9357	233.0193
509.098	233.0922
509.2604	230.3918
509.4227	232.1792
509.5851	237.9901
509.7474	223.7993
509.9097	220.6255
510.072	233.4191
510.2343	237.2311
510.3966	236.1005
510.5589	233.2618
510.7212	231.6758
510.8835	231.9471
511.0458	234.0058
511.2081	231.5239
511.3703	229.7413
511.5326	228.0111
511.6949	232.9341
511.8571	243.1899
512.0193	239.9795
512.1816	228.447
512.3438	228.0706
512.506	222.6616
512.6682	226.7664
512.8304	224.7622
512.9926	226.3689
513.1548	220.7793
513.317	222.4675
513.4792	232.7843
513.6414	237.8139
513.8035	227.0755
513.9657	222.4422
514.1279	224.2903
514.29	229.8094
514.4521	237.2069
514.6143	223.6818
514.7764	232.8055
514.9385	228.2755
515.1006	225.8776
515.2628	231.2681
515.4249	233.649
515.587	243.1725
515.7491	233.008
515.9111	232.9772
516.0732	233.8595
516.2353	227.0119
