SPECTRUM DATA FILE
SpectrumCount:	1
PixelCount:	3648
UserName:	ToughBook User
SampleName:	
LightSource:	
Comments:	
DeviceName:	Qwave
DeviceManufacturer:	Broadcom
DeviceSerialNo:	11311

Name:	last spectrum
Date:	2024-05-02T14:50:21.7059922+02:00
ExposureTime:	0.02
TemporalAvg:	1
IntensityUnit:	normalizedCounts
CCDLoadLevel:	0.05713313
Temperature:	32.58951
DiagramColor:	200
ProcessingSteps:	335

Wavelength [nm]	Intensity1
334.421	15.06801
334.5891	19.73167
334.7573	15.03274
334.9254	19.16557
335.0935	20.58978
335.2616	18.73348
335.4297	17.5431
335.5978	19.47173
335.7659	20.22172
335.934	19.15025
336.1021	17.82518
336.2701	18.82543
336.4382	17.9424
336.6063	22.68093
336.7744	16.25131
336.9424	18.74444
337.1105	23.6321
337.2785	19.55079
337.4466	16.36492
337.6146	21.23145
337.7827	22.96646
337.9507	16.80931
338.1187	18.79304
338.2867	23.68941
338.4548	19.92333
338.6228	18.67694
338.7908	20.28736
338.9588	21.94785
339.1268	23.96951
339.2948	19.8739
339.4628	23.33479
339.6308	19.67351
339.7988	20.54482
339.9667	14.05021
340.1347	20.54329
340.3027	21.47191
340.4707	20.35135
340.6386	19.90908
340.8066	21.78823
340.9745	16.4569
341.1425	20.94494
341.3104	17.52277
341.4784	17.25551
341.6463	18.27207
341.8142	17.54639
341.9821	18.33529
342.1501	22.92537
342.318	19.45851
342.4859	20.1413
342.6538	21.15359
342.8217	20.35165
342.9896	21.31665
343.1575	17.63948
343.3254	21.96537
343.4933	23.73696
343.6612	20.11434
343.829	21.61279
343.9969	21.06406
344.1648	14.92917
344.3326	15.06664
344.5005	22.50066
344.6683	21.05354
344.8362	20.128
345.004	16.72063
345.1719	22.75365
345.3397	19.35211
345.5075	20.45905
345.6754	21.4427
345.8432	22.63604
346.011	23.17751
346.1788	22.50136
346.3466	23.34304
346.5144	21.02248
346.6822	22.06425
346.85	22.83506
347.0178	24.19832
347.1856	17.13925
347.3534	21.33964
347.5211	19.45274
347.6889	24.28037
347.8567	19.37698
348.0244	21.5189
348.1922	22.19156
348.3599	25.81544
348.5277	21.42505
348.6954	17.6156
348.8632	18.18065
349.0309	18.24439
349.1986	20.57102
349.3663	21.77864
349.5341	19.87735
349.7018	22.76375
349.8695	21.001
350.0372	24.97724
350.2049	20.31832
350.3726	19.51477
350.5403	18.08202
350.7079	21.88992
350.8756	20.27415
351.0433	23.08502
351.211	22.54774
351.3786	21.71474
351.5463	21.79799
351.714	24.43693
351.8816	23.33285
352.0493	26.56307
352.2169	24.46381
352.3846	22.23979
352.5522	24.96992
352.7198	24.30001
352.8875	21.41419
353.0551	25.92893
353.2227	26.18251
353.3903	24.65045
353.5579	30.38645
353.7255	27.51476
353.8931	28.31297
354.0607	31.91941
354.2283	30.51502
354.3958	26.39699
354.5634	30.01333
354.731	26.4592
354.8986	24.23609
355.0661	23.06155
355.2337	25.51497
355.4012	28.96041
355.5688	24.09121
355.7363	26.80663
355.9039	25.46264
356.0714	31.12277
356.239	24.90214
356.4065	25.96074
356.574	25.31075
356.7415	19.51733
356.909	23.53152
357.0765	21.60354
357.244	21.97072
357.4115	25.83214
357.579	27.68995
357.7465	27.10016
357.914	21.69458
358.0815	22.19469
358.249	21.50772
358.4164	18.67192
358.5839	21.20153
358.7513	22.26525
358.9188	24.40815
359.0862	24.50457
359.2537	24.49146
359.4211	25.87129
359.5886	28.00544
359.756	30.03185
359.9234	27.82083
360.0909	27.74319
360.2583	26.93515
360.4257	27.63169
360.5931	22.44592
360.7605	24.11413
360.9279	18.75759
361.0953	23.2707
361.2627	28.82346
361.4301	27.55167
361.5974	25.82155
361.7648	27.32687
361.9322	23.63908
362.0995	28.37308
362.2669	29.41157
362.4343	27.23536
362.6016	31.86767
362.769	32.99626
362.9363	27.21854
363.1036	28.42787
363.271	25.13452
363.4383	28.86465
363.6056	26.66003
363.7729	28.43088
363.9402	31.33549
364.1075	27.95411
364.2748	27.01268
364.4421	27.96702
364.6094	27.40204
364.7767	27.19143
364.944	34.5575
365.1113	30.18639
365.2786	33.31362
365.4458	30.17629
365.6131	31.24651
365.7803	32.2403
365.9476	28.17746
366.1148	31.38355
366.2821	37.63673
366.4493	38.4667
366.6166	33.21664
366.7838	32.63229
366.951	32.93368
367.1182	28.49171
367.2855	29.54177
367.4527	30.33704
367.6199	33.25938
367.7871	30.17959
367.9543	26.92048
368.1215	25.30549
368.2886	22.02729
368.4558	28.04862
368.623	31.02271
368.7902	29.81136
368.9573	30.7182
369.1245	29.29468
369.2917	32.44463
369.4588	31.98526
369.6259	32.73617
369.7931	35.51217
369.9602	33.2851
370.1274	31.27522
370.2945	32.17616
370.4616	32.02028
370.6287	30.10815
370.7958	27.49495
370.963	25.57901
371.1301	34.2232
371.2971	39.65353
371.4643	34.69345
371.6313	36.01937
371.7984	32.39192
371.9655	31.61224
372.1326	27.79331
372.2997	33.76867
372.4667	31.96
372.6338	30.50348
372.8008	31.7086
372.9679	36.38181
373.1349	35.37999
373.3019	35.13626
373.469	27.39893
373.636	29.42417
373.803	36.67445
373.9701	34.65588
374.1371	34.50733
374.3041	34.74455
374.4711	31.6699
374.6381	33.41542
374.8051	32.02217
374.9721	32.79568
375.1391	35.76443
375.3061	42.59741
375.473	38.55414
375.64	35.16042
375.8069	36.08665
375.9739	35.72859
376.1409	34.3201
376.3078	36.02124
376.4748	36.47496
376.6417	39.41577
376.8087	36.80083
376.9756	33.76767
377.1425	38.87635
377.3094	38.97367
377.4763	42.3982
377.6432	41.6298
377.8102	39.19497
377.9771	40.46844
378.144	41.89531
378.3109	44.54118
378.4777	40.76657
378.6446	35.90134
378.8115	34.45197
378.9784	37.66449
379.1452	36.42199
379.3121	32.61993
379.4789	35.06276
379.6458	35.52634
379.8127	35.31319
379.9795	35.56393
380.1463	38.83663
380.3131	39.52303
380.48	42.71812
380.6468	42.46537
380.8136	39.18507
380.9804	35.31877
381.1472	40.93573
381.314	37.2716
381.4808	37.15685
381.6476	39.09571
381.8144	31.95653
381.9812	31.78925
382.148	33.4778
382.3147	33.92843
382.4815	39.3742
382.6483	36.29633
382.815	35.31561
382.9818	30.137
383.1485	30.901
383.3153	32.35649
383.482	35.60618
383.6487	31.34482
383.8155	33.28761
383.9822	35.03307
384.1489	38.33388
384.3156	38.42987
384.4823	43.62905
384.649	45.98264
384.8157	41.07296
384.9824	45.98523
385.1491	47.14649
385.3158	44.94227
385.4825	41.48888
385.6491	40.50628
385.8158	37.95583
385.9825	34.55153
386.1491	37.96586
386.3157	40.68361
386.4824	43.49064
386.649	42.72247
386.8157	43.29261
386.9823	39.94658
387.1489	37.47687
387.3156	43.21099
387.4821	44.6392
387.6488	41.26065
387.8154	43.69025
387.982	39.5522
388.1486	42.27636
388.3152	40.55404
388.4818	39.54872
388.6483	38.46021
388.8149	47.66963
388.9815	43.32065
389.148	43.85061
389.3146	43.6775
389.4811	44.55781
389.6477	45.38794
389.8142	50.96356
389.9808	47.30054
390.1473	46.19245
390.3138	44.88089
390.4804	43.74848
390.6469	43.23249
390.8134	50.10028
390.9799	51.11694
391.1464	46.86168
391.3129	49.8722
391.4794	48.95358
391.6459	49.9317
391.8124	48.61436
391.9789	47.24672
392.1453	43.37414
392.3118	41.23449
392.4782	44.46492
392.6447	41.52757
392.8112	40.10999
392.9776	33.91481
393.144	30.01715
393.3105	26.33651
393.4769	33.25536
393.6433	41.26561
393.8098	35.11255
393.9762	43.69064
394.1426	39.99404
394.309	45.52036
394.4754	48.56196
394.6418	51.50404
394.8082	51.26954
394.9746	47.69237
395.141	50.22655
395.3073	53.49879
395.4737	57.35652
395.64	55.25585
395.8064	50.32557
395.9728	46.16315
396.1391	44.20982
396.3055	45.32599
396.4718	43.05222
396.6381	38.35508
396.8045	36.61066
396.9708	39.6979
397.1371	41.46155
397.3034	47.12128
397.4697	48.24069
397.636	53.08933
397.8023	54.71717
397.9686	56.06272
398.1349	57.44306
398.3012	56.24081
398.4675	56.75233
398.6337	61.78127
398.8	64.92432
398.9662	68.92828
399.1325	64.50862
399.2988	56.20182
399.465	58.3385
399.6313	63.38723
399.7975	59.29405
399.9637	61.04128
400.1299	68.7733
400.2961	67.40298
400.4624	61.12782
400.6286	60.32499
400.7948	64.32205
400.961	68.06808
401.1272	66.35358
401.2934	65.29355
401.4595	69.76215
401.6257	64.88404
401.7919	64.65871
401.9581	70.01749
402.1242	64.23191
402.2904	67.61095
402.4565	66.85309
402.6227	68.69398
402.7888	68.81978
402.955	69.66959
403.1211	64.422
403.2872	62.16222
403.4533	65.23398
403.6194	67.35948
403.7856	65.04786
403.9517	64.93342
404.1177	61.63478
404.2838	62.41979
404.4499	62.99419
404.616	60.72747
404.7821	62.50061
404.9482	63.29003
405.1142	70.73443
405.2803	72.17455
405.4464	65.33637
405.6124	60.83624
405.7784	65.28604
405.9445	67.0991
406.1105	66.6601
406.2766	73.28506
406.4426	70.0997
406.6086	67.37985
406.7746	68.83736
406.9406	67.37897
407.1066	65.63892
407.2726	70.54257
407.4386	67.91444
407.6046	70.24179
407.7706	68.3811
407.9366	73.35641
408.1025	74.75816
408.2685	79.3083
408.4344	76.74066
408.6004	75.54496
408.7664	79.56446
408.9323	85.90038
409.0983	83.057
409.2642	80.66594
409.4301	77.2005
409.596	74.86792
409.762	73.0112
409.9279	70.95939
410.0938	72.43314
410.2597	70.41357
410.4256	69.92302
410.5915	75.1151
410.7574	78.21886
410.9232	76.76199
411.0891	78.4311
411.255	86.22598
411.4209	89.30093
411.5867	84.2058
411.7526	83.68205
411.9184	86.72107
412.0843	86.12067
412.2501	85.17439
412.4159	81.11761
412.5818	78.10932
412.7476	77.84952
412.9134	75.85606
413.0792	77.73986
413.245	78.34642
413.4108	79.47543
413.5766	81.82255
413.7424	82.81066
413.9082	84.94866
414.074	81.04873
414.2397	79.48282
414.4055	81.76205
414.5713	79.85375
414.737	82.66257
414.9028	86.95799
415.0685	83.06034
415.2343	85.5447
415.4	82.43694
415.5658	78.6442
415.7315	83.25539
415.8972	85.20423
416.0629	84.50397
416.2286	85.58952
416.3943	85.83341
416.56	85.1909
416.7257	87.84274
416.8914	83.97147
417.0571	81.29823
417.2228	73.8027
417.3884	79.92205
417.5541	84.15382
417.7198	80.70157
417.8854	82.99517
418.0511	83.10583
418.2167	82.51675
418.3824	83.76227
418.548	81.74778
418.7136	85.97569
418.8792	89.51442
419.0449	87.5902
419.2105	88.82515
419.3761	85.10647
419.5417	85.26376
419.7073	82.84903
419.8729	84.45738
420.0385	84.5329
420.204	83.55743
420.3696	90.53862
420.5352	92.08718
420.7007	94.33046
420.8663	96.13816
421.0319	90.50172
421.1974	91.51792
421.3629	87.74225
421.5285	95.18728
421.694	89.7114
421.8595	91.01234
422.0251	94.87945
422.1906	91.98243
422.3561	90.2453
422.5216	79.236
422.6871	80.41093
422.8526	85.90997
423.0181	90.31864
423.1835	96.36909
423.349	93.12971
423.5145	90.34011
423.68	92.89428
423.8454	91.54462
424.0109	94.90925
424.1763	95.81413
424.3418	94.28883
424.5072	91.75716
424.6726	95.13704
424.838	93.92367
425.0035	90.77838
425.1689	92.50463
425.3343	95.44413
425.4997	99.29681
425.6651	101.3217
425.8305	102.3714
425.9959	89.2097
426.1613	87.4771
426.3267	95.87564
426.492	94.57275
426.6574	102.5386
426.8228	100.1327
426.9881	90.78413
427.1534	89.40794
427.3188	87.92382
427.4841	94.32411
427.6495	96.26909
427.8148	98.98314
427.9801	97.6475
428.1454	98.60355
428.3107	92.45994
428.476	94.39732
428.6414	97.92529
428.8066	93.76294
428.9719	91.17774
429.1372	93.02852
429.3025	87.91689
429.4678	94.02776
429.633	93.32634
429.7983	85.05478
429.9636	80.75229
430.1288	81.20783
430.294	78.4026
430.4593	80.95261
430.6245	83.04067
430.7897	76.55511
430.955	72.94823
431.1202	74.26447
431.2854	87.00972
431.4506	91.47341
431.6158	100.5306
431.781	107.741
431.9462	112.9441
432.1114	110.2051
432.2766	98.9889
432.4417	94.19221
432.6069	96.14669
432.772	95.40675
432.9372	100.8563
433.1024	102.3923
433.2675	105.3924
433.4326	109.1604
433.5977	109.1926
433.7629	102.2421
433.928	90.27437
434.0931	94.0248
434.2582	97.37083
434.4233	99.19701
434.5884	107.5575
434.7535	110.5565
434.9186	112.6662
435.0837	110.1146
435.2488	102.1154
435.4138	103.9272
435.5789	110.9792
435.744	108.0562
435.909	113.0045
436.0741	113.9646
436.2391	109.4564
436.4042	115.1424
436.5692	115.8505
436.7342	116.6065
436.8992	112.157
437.0643	115.3299
437.2293	112.3894
437.3943	110.3927
437.5593	109.6924
437.7243	118.1671
437.8893	112.2476
438.0542	110.9004
438.2192	108.863
438.3842	98.53056
438.5491	100.5675
438.7141	105.955
438.8791	113.1701
439.044	106.7246
439.209	110.1992
439.3739	118.9066
439.5388	118.6457
439.7037	121.336
439.8687	120.6203
440.0336	117.2595
440.1985	113.9485
440.3634	112.1091
440.5283	106.843
440.6932	113.0475
440.8581	120.5471
441.0229	120.8102
441.1878	116.9279
441.3527	112.0747
441.5175	117.1237
441.6824	115.9584
441.8472	125.0671
442.0121	125.5202
442.1769	127.7791
442.3418	125.2174
442.5066	123.6518
442.6714	128.0027
442.8362	125.939
443.001	127.1615
443.1659	127.8346
443.3307	115.3609
443.4955	122.0233
443.6602	123.3967
443.825	126.2563
443.9898	132.904
444.1546	123.0361
444.3193	118.7988
444.4841	133.3298
444.6488	137.3477
444.8136	128.0069
444.9783	126.6303
445.1431	129.5508
445.3078	130.9017
445.4725	124.2207
445.6372	119.1606
445.802	115.1821
445.9667	117.8449
446.1314	125.2463
446.2961	119.2765
446.4608	124.2136
446.6255	131.1113
446.7901	128.8129
446.9548	128.0317
447.1195	132.7465
447.2841	128.6372
447.4488	134.6119
447.6134	135.804
447.7781	132.3716
447.9427	136.6456
448.1074	127.2755
448.272	127.1719
448.4366	130.6543
448.6012	135.9126
448.7658	135.4863
448.9305	135.2414
449.095	133.7578
449.2596	133.2035
449.4242	134.7405
449.5888	137.9084
449.7534	132.7964
449.9179	133.8088
450.0825	140.5593
450.2471	144.2046
450.4116	144.6475
450.5762	146.4308
450.7407	145.1995
450.9052	140.3361
451.0698	147.5934
451.2343	138.2699
451.3988	138.5777
451.5633	147.2916
451.7278	141.6252
451.8923	144.7226
452.0568	139.6889
452.2213	140.1463
452.3858	142.4366
452.5503	137.9626
452.7148	132.6426
452.8792	129.4557
453.0437	134.5519
453.2081	136.6135
453.3726	140.6506
453.537	140.1916
453.7015	141.2762
453.8659	148.821
454.0303	157.0699
454.1947	152.696
454.3592	145.7716
454.5236	146.7731
454.688	150.0142
454.8524	144.164
455.0168	143.5364
455.1811	147.5457
455.3455	147.0981
455.5099	148.5296
455.6743	147.358
455.8386	150.6048
456.003	147.7099
456.1673	144.294
456.3317	148.8244
456.496	148.8158
456.6603	148.7844
456.8246	152.4817
456.989	150.8971
457.1533	150.2823
457.3176	144.7558
457.4819	157.8647
457.6462	163.1185
457.8105	158.2664
457.9748	149.0568
458.1391	146.1057
458.3033	144.2282
458.4676	139.2315
458.6319	146.7554
458.7961	149.3799
458.9604	150.797
459.1246	149.7778
459.2888	153.8586
459.4531	155.149
459.6173	149.5446
459.7815	143.8992
459.9457	146.8726
460.11	152.2327
460.2741	149.4207
460.4384	150.706
460.6025	154.3984
460.7667	152.7305
460.9309	151.0866
461.0951	150.0946
461.2592	156.3296
461.4234	160.0328
461.5876	155.009
461.7517	153.0942
461.9159	158.9127
462.08	153.1507
462.2441	159.7895
462.4082	157.9758
462.5724	153.4725
462.7365	156.2315
462.9006	150.0657
463.0647	156.4361
463.2288	156.7806
463.3929	157.1178
463.557	153.6335
463.721	154.7521
463.8851	152.7282
464.0492	151.6314
464.2132	154.1302
464.3773	148.7157
464.5414	152.397
464.7054	152.0283
464.8694	145.5302
465.0334	157.6687
465.1975	159.9953
465.3615	163.2589
465.5255	157.5086
465.6895	153.8032
465.8535	151.6384
466.0175	154.0865
466.1815	157.4352
466.3455	153.7557
466.5095	150.0844
466.6734	150.1824
466.8374	148.8896
467.0014	153.7906
467.1653	157.4147
467.3293	153.5062
467.4932	156.0714
467.6571	156.7226
467.8211	158.6612
467.985	154.4923
468.1489	157.1968
468.3128	160.1615
468.4767	155.2483
468.6406	158.0809
468.8045	164.7528
468.9684	159.9578
469.1323	161.6261
469.2962	161.3947
469.46	167.3609
469.6239	164.3729
469.7878	155.1162
469.9516	154.5642
470.1154	158.6797
470.2793	155.3634
470.4431	158.8216
470.607	152.2007
470.7708	152.1978
470.9346	156.7111
471.0984	155.8186
471.2622	163.7145
471.426	160.929
471.5898	163.3185
471.7536	172.6399
471.9174	171.7008
472.0811	174.8261
472.2449	168.5412
472.4087	169.5294
472.5724	167.0295
472.7362	162.8372
472.8999	161.8734
473.0637	157.0509
473.2274	163.2749
473.3911	160.1936
473.5548	161.8283
473.7185	160.3756
473.8822	161.6017
474.0459	166.3296
474.2096	170.3234
474.3733	170.5115
474.537	166.9985
474.7007	172.3591
474.8643	176.3677
475.028	173.7928
475.1917	163.062
475.3553	161.9987
475.519	160.5516
475.6826	157.8497
475.8463	163.7636
476.0099	166.1532
476.1735	163.309
476.3371	158.4096
476.5007	161.3075
476.6643	160.8748
476.8279	163.436
476.9915	170.5034
477.1551	166.5655
477.3187	164.4239
477.4823	169.8628
477.6458	170.2501
477.8094	167.8154
477.9729	168.1629
478.1365	166.5731
478.3	167.2785
478.4636	167.8974
478.6271	167.1835
478.7906	167.3977
478.9541	170.4108
479.1176	170.9703
479.2812	176.5819
479.4447	177.5029
479.6082	177.1302
479.7716	167.9666
479.9351	172.7944
480.0986	174.0998
480.2621	172.5806
480.4255	162.13
480.589	168.2995
480.7524	165.4046
480.9159	166.4429
481.0793	168.6135
481.2428	167.0613
481.4062	162.573
481.5696	171.3445
481.733	169.7425
481.8964	177.8
482.0598	166.0606
482.2232	167.7643
482.3866	167.7208
482.55	171.3822
482.7134	165.9225
482.8768	168.8148
483.0401	173.3919
483.2035	165.6582
483.3668	168.6616
483.5302	169.0215
483.6935	169.3323
483.8568	170.5802
484.0202	166.8708
484.1835	163.5824
484.3468	159.6491
484.5101	167.2167
484.6734	173.9947
484.8367	171.3933
485	167.8887
485.1633	167.0951
485.3266	161.7532
485.4899	157.7875
485.6531	159.5049
485.8164	151.298
485.9796	138.9302
486.1429	137.8969
486.3061	142.5184
486.4694	146.8539
486.6326	156.3234
486.7958	157.7757
486.959	160.1906
487.1223	155.2754
487.2855	153.5108
487.4486	160.1939
487.6118	166.0855
487.775	170.6555
487.9382	181.0026
488.1014	172.4461
488.2646	176.2506
488.4277	171.0883
488.5909	165.2748
488.754	165.0307
488.9171	167.8054
489.0803	157.584
489.2434	160.7618
489.4066	174.0539
489.5697	176.0742
489.7328	175.0379
489.8959	170.7299
490.059	172.0376
490.2221	173.7078
490.3852	174.4218
490.5482	175.6622
490.7113	174.2526
490.8744	174.7709
491.0374	164.5042
491.2005	171.6462
491.3636	175.1023
491.5266	173.0249
491.6896	169.7959
491.8527	167.9707
492.0157	163.6747
492.1787	164.7472
492.3417	161.6117
492.5047	163.246
492.6677	165.0994
492.8307	178.2287
492.9937	178.6017
493.1567	182.5083
493.3196	178.5426
493.4826	171.3628
493.6456	170.9764
493.8085	172.3548
493.9715	168.8595
494.1344	179.0097
494.2974	181.8966
494.4603	184.6914
494.6232	187.0093
494.7861	185.0269
494.949	184.5214
495.1119	179.8859
495.2748	176.9206
495.4377	179.0966
495.6006	170.5684
495.7635	174.1406
495.9264	170.5284
496.0892	176.6348
496.2521	187.4942
496.4149	185.9845
496.5778	181.9621
496.7407	172.0006
496.9035	176.78
497.0663	185.7532
497.2291	182.8702
497.3919	187.2363
497.5547	182.6636
497.7176	184.1143
497.8804	179.9121
498.0432	171.9431
498.2059	171.5786
498.3687	166.0808
498.5315	170.646
498.6942	179.4781
498.857	179.8302
499.0198	179.5778
499.1825	179.4363
499.3452	177.6861
499.508	184.8865
499.6707	180.9653
499.8334	181.2194
499.9962	182.0106
500.1589	177.8959
500.3216	174.2267
500.4843	167.3391
500.6469	164.1583
500.8096	172.4764
500.9723	178.9097
501.135	176.7662
501.2976	166.3806
501.4603	169.8092
501.623	170.1542
501.7856	165.1102
501.9482	170.4096
502.1109	166.7943
502.2735	175.866
502.4361	173.5661
502.5987	174.977
502.7614	183.8903
502.924	180.1118
503.0865	177.5204
503.2491	189.5434
503.4117	180.7449
503.5743	175.717
503.7368	180.0198
503.8994	177.6027
504.062	171.6034
504.2245	171.9174
504.3871	181.4187
504.5496	187.742
504.7121	184.4004
504.8746	174.4045
505.0372	178.5526
505.1997	186.7204
505.3622	189.6428
505.5247	193.5696
505.6872	198.9271
505.8497	188.4164
506.0121	191.3459
506.1746	189.8256
506.3371	191.244
506.4995	186.931
506.662	187.9191
506.8244	186.0602
506.9869	189.0261
507.1493	185.1504
507.3117	186.1108
507.4742	187.2811
507.6366	182.145
507.799	185.6022
507.9614	182.4244
508.1238	183.0908
508.2862	186.1704
508.4485	186.5546
508.6109	183.3417
508.7733	184.8114
508.9357	190.3547
509.098	191.4172
509.2604	189.4602
509.4227	193.0821
509.5851	189.5379
509.7474	184.4646
509.9097	178.5867
510.072	176.5982
510.2343	183.3479
510.3966	188.3348
510.5589	188.1858
510.7212	188.7238
510.8835	183.9057
511.0458	180.1936
511.2081	181.9928
511.3703	193.7375
511.5326	188.0331
511.6949	194.808
511.8571	199.8397
512.0193	192.3573
512.1816	183.1404
512.3438	185.392
512.506	184.1967
512.6682	183.6549
512.8304	183.7541
512.9926	185.202
513.1548	188.8003
513.317	188.5364
513.4792	188.8974
513.6414	183.8322
513.8035	179.4589
513.9657	178.7886
514.1279	179.4275
514.29	185.8676
514.4521	179.2269
514.6143	174.3155
514.7764	186.9126
514.9385	191.5039
515.1006	188.7538
515.2628	186.244
515.4249	185.5125
515.587	185.4749
515.7491	186.1935
515.9111	189.6528
516.0732	191.606
516.2353	181.429
516.3973	178.3626
