SPECTRUM DATA FILE
SpectrumCount:	1
PixelCount:	3648
UserName:	ToughBook User
SampleName:	
LightSource:	
Comments:	
DeviceName:	Qwave
DeviceManufacturer:	Broadcom
DeviceSerialNo:	11311

Name:	last spectrum
Date:	2024-05-02T14:50:41.4925205+02:00
ExposureTime:	0.02
TemporalAvg:	1
IntensityUnit:	normalizedCounts
CCDLoadLevel:	0.05272437
Temperature:	32.58951
DiagramColor:	200
ProcessingSteps:	335

Wavelength [nm]	Intensity1
334.421	16.9649
334.5891	10.69036
334.7573	13.5
334.9254	16.47009
335.0935	13.9666
335.2616	12.78466
335.4297	13.48108
335.5978	14.20976
335.7659	11.65083
335.934	12.40271
336.1021	15.41796
336.2701	13.98182
336.4382	14.90697
336.6063	12.26849
336.7744	12.60223
336.9424	10.06414
337.1105	14.30329
337.2785	20.27093
337.4466	13.16525
337.6146	9.563864
337.7827	11.02048
337.9507	13.73531
338.1187	15.03557
338.2867	13.33429
338.4548	9.182796
338.6228	12.04887
338.7908	16.71331
338.9588	12.42299
339.1268	14.17696
339.2948	13.21197
339.4628	11.12016
339.6308	11.40876
339.7988	10.44485
339.9667	12.02287
340.1347	15.86364
340.3027	15.34754
340.4707	10.9816
340.6386	6.51736
340.8066	14.49998
340.9745	14.83428
341.1425	15.35419
341.3104	12.36897
341.4784	14.68073
341.6463	14.4294
341.8142	16.29518
341.9821	12.04691
342.1501	14.40078
342.318	8.593878
342.4859	9.652977
342.6538	14.60443
342.8217	16.77811
342.9896	16.09107
343.1575	16.32409
343.3254	18.59786
343.4933	20.57287
343.6612	14.45505
343.829	13.70841
343.9969	11.73065
344.1648	9.540843
344.3326	12.13975
344.5005	17.28955
344.6683	22.83077
344.8362	15.74229
345.004	13.14374
345.1719	10.32819
345.3397	9.078074
345.5075	13.27192
345.6754	15.49135
345.8432	21.07375
346.011	16.73481
346.1788	15.59116
346.3466	14.15859
346.5144	11.81772
346.6822	15.61386
346.85	20.80336
347.0178	12.55674
347.1856	16.23139
347.3534	16.92901
347.5211	11.44489
347.6889	14.12363
347.8567	14.49233
348.0244	15.38589
348.1922	12.48028
348.3599	15.16382
348.5277	11.37165
348.6954	14.49706
348.8632	13.8746
349.0309	14.0434
349.1986	12.69772
349.3663	12.89816
349.5341	12.07114
349.7018	14.03206
349.8695	15.96466
350.0372	14.30776
350.2049	17.73813
350.3726	15.88714
350.5403	12.27204
350.7079	11.3943
350.8756	15.8035
351.0433	15.28464
351.211	10.31846
351.3786	17.63116
351.5463	18.36487
351.714	15.68138
351.8816	13.87442
352.0493	14.4784
352.2169	12.22187
352.3846	15.51024
352.5522	15.84569
352.7198	13.3861
352.8875	19.30062
353.0551	20.87274
353.2227	22.23283
353.3903	16.99894
353.5579	12.23878
353.7255	16.02598
353.8931	18.25932
354.0607	14.89584
354.2283	20.64342
354.3958	16.98454
354.5634	17.09223
354.731	12.4842
354.8986	16.59951
355.0661	13.55278
355.2337	21.80383
355.4012	19.89014
355.5688	16.60276
355.7363	16.66018
355.9039	18.53813
356.0714	18.91344
356.239	15.18842
356.4065	14.34971
356.574	20.09707
356.7415	21.50848
356.909	16.97977
357.0765	14.27696
357.244	19.1213
357.4115	13.88502
357.579	17.67885
357.7465	16.34454
357.914	18.23234
358.0815	12.88851
358.249	14.9268
358.4164	16.09524
358.5839	15.33434
358.7513	16.3947
358.9188	16.88081
359.0862	19.22448
359.2537	20.25803
359.4211	17.9517
359.5886	18.50217
359.756	22.27579
359.9234	20.15463
360.0909	19.9303
360.2583	15.67827
360.4257	15.0648
360.5931	17.25165
360.7605	20.72356
360.9279	15.64811
361.0953	16.03059
361.2627	17.43795
361.4301	18.23873
361.5974	19.75623
361.7648	17.91732
361.9322	19.12204
362.0995	21.4998
362.2669	23.43997
362.4343	23.77499
362.6016	21.27858
362.769	20.70388
362.9363	19.8247
363.1036	19.7644
363.271	22.44898
363.4383	15.42702
363.6056	15.19537
363.7729	18.70045
363.9402	22.75992
364.1075	25.15284
364.2748	21.42833
364.4421	20.5197
364.6094	23.37887
364.7767	18.21501
364.944	15.66745
365.1113	18.37042
365.2786	22.67469
365.4458	15.14069
365.6131	25.33895
365.7803	28.78037
365.9476	23.62989
366.1148	24.31516
366.2821	24.28049
366.4493	21.54359
366.6166	23.45995
366.7838	24.88372
366.951	23.8642
367.1182	20.82704
367.2855	26.31492
367.4527	24.39914
367.6199	22.05086
367.7871	23.342
367.9543	23.85715
368.1215	22.63333
368.2886	27.22748
368.4558	22.28118
368.623	21.80305
368.7902	20.23879
368.9573	25.75888
369.1245	24.34049
369.2917	24.61923
369.4588	24.70306
369.6259	25.36922
369.7931	26.25695
369.9602	23.64222
370.1274	24.69495
370.2945	25.86298
370.4616	24.90421
370.6287	20.67823
370.7958	25.56981
370.963	24.12755
371.1301	26.72582
371.2971	23.58899
371.4643	23.53116
371.6313	29.86121
371.7984	26.47442
371.9655	22.14794
372.1326	22.31768
372.2997	16.67089
372.4667	23.03429
372.6338	26.17388
372.8008	19.88735
372.9679	22.44869
373.1349	24.3995
373.3019	23.49766
373.469	20.86568
373.636	23.72388
373.803	20.26243
373.9701	20.9941
374.1371	24.10127
374.3041	22.33426
374.4711	22.74489
374.6381	20.57982
374.8051	25.21876
374.9721	22.8325
375.1391	26.43949
375.3061	29.07155
375.473	25.03393
375.64	28.42328
375.8069	27.16008
375.9739	23.50151
376.1409	28.27346
376.3078	27.72573
376.4748	28.41677
376.6417	31.20521
376.8087	24.73818
376.9756	22.39509
377.1425	22.80846
377.3094	33.14906
377.4763	29.11996
377.6432	28.33772
377.8102	34.05618
377.9771	31.94678
378.144	32.45592
378.3109	34.60125
378.4777	37.12317
378.6446	27.63973
378.8115	28.69355
378.9784	23.62691
379.1452	24.78479
379.3121	26.13749
379.4789	25.0225
379.6458	28.29376
379.8127	24.89566
379.9795	23.81745
380.1463	27.55854
380.3131	27.8205
380.48	25.58655
380.6468	27.98248
380.8136	30.20692
380.9804	29.05436
381.1472	22.91645
381.314	26.50951
381.4808	25.24305
381.6476	23.19584
381.8144	26.86942
381.9812	28.1649
382.148	25.06065
382.3147	22.93867
382.4815	22.73446
382.6483	21.01322
382.815	20.42287
382.9818	21.01844
383.1485	23.65709
383.3153	28.57312
383.482	23.50985
383.6487	21.83938
383.8155	20.36556
383.9822	23.23793
384.1489	27.56758
384.3156	28.51576
384.4823	29.54487
384.649	27.81101
384.8157	24.83848
384.9824	32.16623
385.1491	34.71445
385.3158	31.76615
385.4825	26.82839
385.6491	26.43834
385.8158	28.9975
385.9825	26.51313
386.1491	25.06203
386.3157	30.98166
386.4824	30.07204
386.649	30.5519
386.8157	32.97047
386.9823	24.99315
387.1489	28.30118
387.3156	29.52444
387.4821	31.5834
387.6488	32.44031
387.8154	25.66832
387.982	29.65495
388.1486	25.78261
388.3152	26.5554
388.4818	25.68424
388.6483	31.60785
388.8149	28.99187
388.9815	33.11529
389.148	32.87648
389.3146	34.93859
389.4811	33.37962
389.6477	35.73846
389.8142	38.11129
389.9808	34.71111
390.1473	34.33097
390.3138	33.16856
390.4804	37.27833
390.6469	35.07002
390.8134	33.43325
390.9799	37.28367
391.1464	39.63156
391.3129	44.37243
391.4794	39.01971
391.6459	37.48045
391.8124	32.78078
391.9789	31.71857
392.1453	35.84055
392.3118	35.67923
392.4782	33.4401
392.6447	32.09605
392.8112	29.71732
392.9776	25.87119
393.144	20.22912
393.3105	21.6674
393.4769	19.01369
393.6433	22.88432
393.8098	29.34217
393.9762	29.99217
394.1426	32.71539
394.309	34.89077
394.4754	35.89823
394.6418	38.2804
394.8082	43.0223
394.9746	42.59934
395.141	39.09852
395.3073	44.33584
395.4737	42.97601
395.64	41.64015
395.8064	41.85533
395.9728	39.20004
396.1391	37.52388
396.3055	33.46733
396.4718	32.8084
396.6381	26.85163
396.8045	26.62822
396.9708	22.83461
397.1371	24.4732
397.3034	28.24855
397.4697	39.1557
397.636	40.9716
397.8023	43.52223
397.9686	49.05342
398.1349	46.03792
398.3012	47.67695
398.4675	39.4216
398.6337	42.71014
398.8	48.79566
398.9662	45.27898
399.1325	48.46318
399.2988	50.00817
399.465	48.4513
399.6313	49.52615
399.7975	45.24854
399.9637	52.56102
400.1299	51.04414
400.2961	50.34556
400.4624	46.14771
400.6286	47.64337
400.7948	49.29242
400.961	50.41291
401.1272	52.7373
401.2934	47.68888
401.4595	51.44849
401.6257	49.50825
401.7919	50.614
401.9581	51.7768
402.1242	56.89304
402.2904	55.02722
402.4565	52.49266
402.6227	51.74481
402.7888	51.49877
402.955	51.20509
403.1211	48.75348
403.2872	52.63314
403.4533	53.03637
403.6194	56.59243
403.7856	56.34805
403.9517	57.82849
404.1177	54.72899
404.2838	49.54916
404.4499	48.48674
404.616	49.18159
404.7821	52.88157
404.9482	53.58186
405.1142	53.67749
405.2803	52.79397
405.4464	57.79279
405.6124	54.46708
405.7784	54.33517
405.9445	55.23802
406.1105	55.68463
406.2766	52.94193
406.4426	51.16595
406.6086	52.8762
406.7746	49.78736
406.9406	52.33006
407.1066	56.05705
407.2726	59.55591
407.4386	48.32792
407.6046	55.26151
407.7706	54.58067
407.9366	61.04789
408.1025	61.58481
408.2685	61.285
408.4344	62.02233
408.6004	60.95924
408.7664	67.02155
408.9323	63.0282
409.0983	69.26629
409.2642	62.83665
409.4301	58.05463
409.596	63.71695
409.762	61.10143
409.9279	55.0655
410.0938	49.92773
410.2597	51.31315
410.4256	56.00953
410.5915	54.56813
410.7574	57.84398
410.9232	60.35501
411.0891	64.21423
411.255	62.73569
411.4209	65.2756
411.5867	64.91977
411.7526	63.44388
411.9184	67.45927
412.0843	62.9842
412.2501	63.21268
412.4159	67.78222
412.5818	63.22742
412.7476	64.66489
412.9134	65.52119
413.0792	65.65713
413.245	61.82954
413.4108	64.13754
413.5766	58.36762
413.7424	66.83594
413.9082	75.09183
414.074	73.07181
414.2397	65.42493
414.4055	67.0519
414.5713	61.24978
414.737	61.10757
414.9028	63.30383
415.0685	61.81645
415.2343	65.10468
415.4	70.4012
415.5658	61.78492
415.7315	64.94461
415.8972	70.10515
416.0629	69.28879
416.2286	73.31535
416.3943	75.51852
416.56	67.60708
416.7257	72.68146
416.8914	72.35452
417.0571	68.03493
417.2228	65.65347
417.3884	64.89691
417.5541	59.89402
417.7198	64.57462
417.8854	65.05764
418.0511	67.78461
418.2167	69.16165
418.3824	65.81696
418.548	68.78014
418.7136	64.00559
418.8792	65.97807
419.0449	65.22898
419.2105	67.56431
419.3761	75.15607
419.5417	79.81985
419.7073	68.6122
419.8729	64.24864
420.0385	64.54059
420.204	65.83341
420.3696	70.22536
420.5352	73.58437
420.7007	75.9467
420.8663	82.89819
421.0319	79.02906
421.1974	76.49043
421.3629	77.40987
421.5285	75.28484
421.694	72.23312
421.8595	75.67549
422.0251	79.08865
422.1906	71.23456
422.3561	68.23175
422.5216	63.53629
422.6871	58.79638
422.8526	68.78854
423.0181	77.11806
423.1835	78.00121
423.349	74.90906
423.5145	76.30998
423.68	80.74594
423.8454	77.23989
424.0109	79.33708
424.1763	79.78242
424.3418	82.8278
424.5072	77.91145
424.6726	73.45019
424.838	73.23297
425.0035	69.10851
425.1689	79.3842
425.3343	76.39876
425.4997	78.07348
425.6651	77.40542
425.8305	78.25011
425.9959	75.13577
426.1613	77.03059
426.3267	82.94913
426.492	81.03283
426.6574	76.8289
426.8228	73.93532
426.9881	73.89234
427.1534	68.73721
427.3188	70.97453
427.4841	73.39779
427.6495	74.96409
427.8148	79.16418
427.9801	78.28789
428.1454	77.0575
428.3107	79.27646
428.476	78.51981
428.6414	78.96545
428.8066	75.48061
428.9719	74.85693
429.1372	72.88414
429.3025	74.30251
429.4678	75.02866
429.633	70.243
429.7983	64.1965
429.9636	63.50006
430.1288	64.22495
430.294	65.27786
430.4593	68.66313
430.6245	61.04302
430.7897	57.98578
430.955	59.04013
431.1202	64.22734
431.2854	75.48843
431.4506	76.10046
431.6158	85.49286
431.781	95.01632
431.9462	96.29386
432.1114	88.82089
432.2766	84.5826
432.4417	71.86869
432.6069	74.41858
432.772	75.3783
432.9372	86.34106
433.1024	89.55552
433.2675	84.83262
433.4326	86.36917
433.5977	86.585
433.7629	80.28104
433.928	72.58131
434.0931	61.21418
434.2582	72.44713
434.4233	83.01255
434.5884	90.00635
434.7535	88.80169
434.9186	88.38365
435.0837	91.05325
435.2488	87.94071
435.4138	90.09089
435.5789	89.90414
435.744	88.72063
435.909	94.43442
436.0741	98.61071
436.2391	101.1609
436.4042	102.9896
436.5692	99.91468
436.7342	93.19772
436.8992	96.28338
437.0643	95.40739
437.2293	98.1891
437.3943	89.50771
437.5593	91.04483
437.7243	95.30913
437.8893	97.2361
438.0542	90.95826
438.2192	84.44833
438.3842	85.52641
438.5491	83.23077
438.7141	86.22614
438.8791	94.94789
439.044	95.28181
439.209	98.62663
439.3739	96.52347
439.5388	101.4213
439.7037	104.1992
439.8687	101.4998
440.0336	96.04086
440.1985	97.91438
440.3634	99.40488
440.5283	96.42942
440.6932	94.71313
440.8581	98.35506
441.0229	107.0676
441.1878	107.6647
441.3527	113.2229
441.5175	103.6105
441.6824	103.6021
441.8472	104.8525
442.0121	105.6634
442.1769	109.6159
442.3418	105.139
442.5066	101.264
442.6714	103.1985
442.8362	111.9274
443.001	102.3502
443.1659	103.1885
443.3307	103.9887
443.4955	101.9673
443.6602	104.4219
443.825	113.3809
443.9898	116.749
444.1546	113.3293
444.3193	108.9248
444.4841	110.9532
444.6488	113.1661
444.8136	114.2955
444.9783	110.0423
445.1431	101.8618
445.3078	101.9265
445.4725	105.2632
445.6372	105.7977
445.802	102.36
445.9667	103.9293
446.1314	105.0725
446.2961	108.3307
446.4608	108.6545
446.6255	111.1651
446.7901	113.5564
446.9548	110.6521
447.1195	110.2556
447.2841	114.7064
447.4488	113.5368
447.6134	112.4646
447.7781	117.5277
447.9427	113.7817
448.1074	109.6349
448.272	113.0679
448.4366	117.4949
448.6012	120.1092
448.7658	119.2416
448.9305	111.856
449.095	110.6599
449.2596	107.1841
449.4242	108.0696
449.5888	113.4091
449.7534	115.7141
449.9179	119.0899
450.0825	119.6344
450.2471	113.4618
450.4116	121.3251
450.5762	127.9646
450.7407	121.9354
450.9052	123.0822
451.0698	128.0683
451.2343	119.1567
451.3988	126.2602
451.5633	123.3299
451.7278	119.1007
451.8923	127.5419
452.0568	127.4028
452.2213	122.4626
452.3858	121.4093
452.5503	114.428
452.7148	123.0536
452.8792	117.4867
453.0437	110.8999
453.2081	117.2767
453.3726	123.399
453.537	119.8087
453.7015	118.0325
453.8659	119.7841
454.0303	124.2
454.1947	124.6365
454.3592	125.9866
454.5236	125.6819
454.688	128.3382
454.8524	123.2323
455.0168	124.4903
455.1811	124.7406
455.3455	119.923
455.5099	120.2527
455.6743	125.2235
455.8386	128.0052
456.003	132.2386
456.1673	128.0643
456.3317	121.5149
456.496	124.1732
456.6603	129.115
456.8246	128.2749
456.989	129.6225
457.1533	130.6862
457.3176	137.3187
457.4819	134.5805
457.6462	127.9601
457.8105	131.514
457.9748	131.545
458.1391	123.8023
458.3033	117.0303
458.4676	121.052
458.6319	120.2283
458.7961	126.2216
458.9604	134.8588
459.1246	136.6672
459.2888	131.6142
459.4531	126.8015
459.6173	123.8414
459.7815	120.7549
459.9457	128.3181
460.11	128.6799
460.2741	127.4717
460.4384	130.3693
460.6025	132.7948
460.7667	130.1641
460.9309	130.8126
461.0951	134.2359
461.2592	128.4524
461.4234	129.2369
461.5876	133.5021
461.7517	136.9317
461.9159	134.3593
462.08	131.2742
462.2441	124.8829
462.4082	132.032
462.5724	137.8008
462.7365	137.3963
462.9006	134.8904
463.0647	137.4232
463.2288	139.0036
463.3929	141.0388
463.557	136.4535
463.721	129.8729
463.8851	128.7686
464.0492	127.2567
464.2132	128.4922
464.3773	139.3415
464.5414	128.9513
464.7054	128.1528
464.8694	127.4444
465.0334	131.3625
465.1975	131.7842
465.3615	133.9703
465.5255	132.7667
465.6895	137.3056
465.8535	137.3941
466.0175	141.9072
466.1815	140.3356
466.3455	137.8672
466.5095	133.3593
466.6734	125.3804
466.8374	123.6022
467.0014	125.4246
467.1653	128.6682
467.3293	131.9155
467.4932	133.7071
467.6571	133.3934
467.8211	133.9076
467.985	132.4043
468.1489	130.8452
468.3128	135.346
468.4767	137.8205
468.6406	138.7284
468.8045	142.7038
468.9684	140.6158
469.1323	141.8563
469.2962	138.5145
469.46	136.8694
469.6239	143.3002
469.7878	137.1543
469.9516	135.8835
470.1154	135.4118
470.2793	128.4393
470.4431	130.5439
470.607	133.8785
470.7708	133.526
470.9346	137.5968
471.0984	138.3386
471.2622	134.6693
471.426	135.9433
471.5898	135.9072
471.7536	141.478
471.9174	149.4142
472.0811	142.9071
472.2449	148.5621
472.4087	147.5155
472.5724	141.5723
472.7362	144.5752
472.8999	142.6695
473.0637	135.1895
473.2274	136.7442
473.3911	140.1036
473.5548	140.2046
473.7185	132.436
473.8822	142.6548
474.0459	140.8712
474.2096	142.9135
474.3733	140.1323
474.537	141.9841
474.7007	153.7328
474.8643	149.0662
475.028	147.3037
475.1917	149.2099
475.3553	146.7176
475.519	144.4516
475.6826	143.4723
475.8463	147.1408
476.0099	145.4471
476.1735	147.3052
476.3371	140.474
476.5007	135.538
476.6643	141.234
476.8279	144.6047
476.9915	145.0822
477.1551	148.0819
477.3187	145.8643
477.4823	143.6216
477.6458	150.8302
477.8094	148.6203
477.9729	147.69
478.1365	142.0067
478.3	134.3124
478.4636	134.6741
478.6271	144.0413
478.7906	145.8891
478.9541	138.8492
479.1176	139.9642
479.2812	149.1328
479.4447	150.3182
479.6082	151.1797
479.7716	147.3175
479.9351	145.5877
480.0986	142.3059
480.2621	147.5281
480.4255	147.8248
480.589	152.3668
480.7524	151.7594
480.9159	146.4316
481.0793	148.2734
481.2428	147.5462
481.4062	149.5654
481.5696	150.2973
481.733	149.4057
481.8964	146.575
482.0598	146.7487
482.2232	145.6183
482.3866	146.3566
482.55	143.7522
482.7134	146.2416
482.8768	145.5469
483.0401	147.5664
483.2035	148.4824
483.3668	147.1396
483.5302	150.5591
483.6935	155.4442
483.8568	148.0117
484.0202	144.0034
484.1835	150.3557
484.3468	143.3927
484.5101	142.9972
484.6734	147.0993
484.8367	145.2278
485	144.5584
485.1633	140.6989
485.3266	142.6474
485.4899	144.3657
485.6531	141.4588
485.8164	131.6005
485.9796	122.2698
486.1429	115.2633
486.3061	118.0522
486.4694	122.5532
486.6326	130.5237
486.7958	135.9664
486.959	138.1394
487.1223	131.8094
487.2855	134.5674
487.4486	133.041
487.6118	138.7717
487.775	145.5273
487.9382	154.7247
488.1014	154.4473
488.2646	155.1523
488.4277	152.405
488.5909	147.3387
488.754	138.4162
488.9171	139.1249
489.0803	139.7232
489.2434	138.8625
489.4066	145.7834
489.5697	155.1594
489.7328	159.1151
489.8959	164.6774
490.059	159.9031
490.2221	159.9227
490.3852	151.9771
490.5482	150.7386
490.7113	150.5203
490.8744	155.7076
491.0374	153.2806
491.2005	147.4248
491.3636	150.1379
491.5266	152.4458
491.6896	150.2258
491.8527	146.4242
492.0157	141.896
492.1787	140.6084
492.3417	142.9266
492.5047	147.6361
492.6677	160.2756
492.8307	157.1536
492.9937	156.9153
493.1567	151.7027
493.3196	143.8245
493.4826	149.9069
493.6456	150.3477
493.8085	153.2856
493.9715	144.2704
494.1344	148.9
494.2974	156.6149
494.4603	157.7601
494.6232	155.9066
494.7861	163.7769
494.949	153.7066
495.1119	155.0952
495.2748	151.7449
495.4377	149.8978
495.6006	141.3057
495.7635	144.931
495.9264	153.5218
496.0892	151.9462
496.2521	148.8959
496.4149	155.7283
496.5778	165.0575
496.7407	154.6095
496.9035	155.8122
497.0663	152.4005
497.2291	153.2009
497.3919	152.6421
497.5547	164.2578
497.7176	164.8558
497.8804	155.937
498.0432	148.7102
498.2059	140.8828
498.3687	140.7709
498.5315	151.7916
498.6942	155.7665
498.857	151.6686
499.0198	158.5025
499.1825	157.0668
499.3452	155.4781
499.508	161.2875
499.6707	159.8403
499.8334	156.1856
499.9962	150.5702
500.1589	151.2002
500.3216	152.1788
500.4843	149.7355
500.6469	148.1163
500.8096	153.3264
500.9723	158.168
501.135	151.204
501.2976	147.9701
501.4603	151.9941
501.623	152.2868
501.7856	148.1287
501.9482	144.9882
502.1109	148.8403
502.2735	158.6822
502.4361	164.3806
502.5987	157.5473
502.7614	147.0847
502.924	153.8191
503.0865	153.1356
503.2491	157.6187
503.4117	153.9625
503.5743	157.0594
503.7368	159.0378
503.8994	155.5015
504.062	151.5596
504.2245	144.9432
504.3871	153.4902
504.5496	162.6857
504.7121	165.5027
504.8746	162.8055
505.0372	155.1382
505.1997	159.8976
505.3622	158.6627
505.5247	162.2777
505.6872	163.7001
505.8497	163.1046
506.0121	172.7085
506.1746	169.6433
506.3371	169.3184
506.4995	163.8976
506.662	159.9286
506.8244	163.0753
506.9869	159.0072
507.1493	158.1354
507.3117	161.9093
507.4742	159.3611
507.6366	153.08
507.799	152.5992
507.9614	153.1437
508.1238	157.8449
508.2862	161.9477
508.4485	164.6309
508.6109	161.1732
508.7733	164.3526
508.9357	161.58
509.098	163.7742
509.2604	169.0712
509.4227	169.2802
509.5851	166.3091
509.7474	157.2889
509.9097	158.1404
510.072	158.8063
510.2343	161.9212
510.3966	167.8708
510.5589	171.197
510.7212	165.7326
510.8835	163.4801
511.0458	161.9625
511.2081	162.6249
511.3703	167.3341
511.5326	170.5697
511.6949	166.2549
511.8571	164.4374
512.0193	170.3537
512.1816	166.9251
512.3438	159.8812
512.506	159.2704
512.6682	159.9171
512.8304	158.2381
512.9926	161.2957
513.1548	158.2999
513.317	158.3353
513.4792	157.5625
513.6414	161.1275
513.8035	155.8262
513.9657	156.3755
514.1279	159.9945
514.29	158.0019
514.4521	152.4022
514.6143	156.1313
514.7764	159.859
514.9385	157.9382
515.1006	160.6254
515.2628	165.8719
515.4249	163.6263
515.587	161.2598
515.7491	167.4323
515.9111	167.4942
516.0732	163.1164
516.2353	156.9744
