SPECTRUM DATA FILE
SpectrumCount:	1
PixelCount:	3648
UserName:	ToughBook User
SampleName:	
LightSource:	
Comments:	
DeviceName:	Qwave
DeviceManufacturer:	Broadcom
DeviceSerialNo:	11311

Name:	last spectrum
Date:	2024-05-02T14:49:28.9535265+02:00
ExposureTime:	0.02
TemporalAvg:	1
IntensityUnit:	normalizedCounts
CCDLoadLevel:	0.06400882
Temperature:	32.14944
DiagramColor:	200
ProcessingSteps:	335

Wavelength [nm]	Intensity1
334.421	27.17674
334.5891	23.16182
334.7573	24.00044
334.9254	26.6391
335.0935	24.02215
335.2616	29.32386
335.4297	30.37614
335.5978	30.21332
335.7659	26.74035
335.934	24.20804
336.1021	23.35811
336.2701	22.83643
336.4382	29.00928
336.6063	31.20587
336.7744	30.85484
336.9424	25.61807
337.1105	23.30603
337.2785	28.00172
337.4466	23.73576
337.6146	23.55379
337.7827	27.58884
337.9507	26.3644
338.1187	28.39912
338.2867	27.22279
338.4548	24.32717
338.6228	24.33186
338.7908	28.90152
338.9588	26.45063
339.1268	27.83719
339.2948	26.83384
339.4628	29.14661
339.6308	29.17572
339.7988	26.80409
339.9667	27.42956
340.1347	24.24176
340.3027	25.15595
340.4707	23.49085
340.6386	22.10619
340.8066	24.14813
340.9745	27.87463
341.1425	27.08587
341.3104	28.24346
341.4784	25.62173
341.6463	26.27971
341.8142	26.53455
341.9821	24.90195
342.1501	26.41031
342.318	30.3833
342.4859	29.745
342.6538	26.23863
342.8217	26.0937
342.9896	27.73417
343.1575	27.99435
343.3254	28.32512
343.4933	25.99113
343.6612	25.78008
343.829	25.93394
343.9969	31.30907
344.1648	33.41852
344.3326	30.99915
344.5005	27.79151
344.6683	28.25088
344.8362	25.94397
345.004	32.59064
345.1719	28.24155
345.3397	29.42072
345.5075	26.81368
345.6754	28.10499
345.8432	26.54333
346.011	30.11951
346.1788	26.76931
346.3466	28.93536
346.5144	33.34383
346.6822	31.416
346.85	28.64483
347.0178	26.96662
347.1856	27.31901
347.3534	25.67517
347.5211	31.37388
347.6889	26.918
347.8567	28.82749
348.0244	28.25031
348.1922	31.24317
348.3599	26.50421
348.5277	26.52068
348.6954	26.11464
348.8632	27.88392
349.0309	33.90956
349.1986	26.06423
349.3663	28.38931
349.5341	31.69994
349.7018	28.91536
349.8695	30.22473
350.0372	34.03524
350.2049	29.28552
350.3726	30.48337
350.5403	29.33842
350.7079	28.9863
350.8756	27.82586
351.0433	28.21549
351.211	29.6579
351.3786	28.18095
351.5463	29.00481
351.714	31.33974
351.8816	32.31706
352.0493	28.74451
352.2169	30.40372
352.3846	29.90381
352.5522	34.68333
352.7198	34.80225
352.8875	31.82479
353.0551	29.67679
353.2227	34.89731
353.3903	33.97137
353.5579	37.07132
353.7255	33.12622
353.8931	35.46725
354.0607	33.75445
354.2283	32.33192
354.3958	39.30455
354.5634	35.05364
354.731	33.81433
354.8986	28.80287
355.0661	28.14674
355.2337	32.84249
355.4012	33.50758
355.5688	30.25118
355.7363	29.36062
355.9039	35.70379
356.0714	32.80654
356.239	37.52406
356.4065	31.194
356.574	27.25473
356.7415	32.82798
356.909	31.8303
357.0765	32.60791
357.244	29.98716
357.4115	34.11847
357.579	31.9724
357.7465	36.19743
357.914	32.11267
358.0815	25.455
358.249	29.09024
358.4164	31.15277
358.5839	31.52302
358.7513	29.33522
358.9188	30.14622
359.0862	30.41928
359.2537	28.71887
359.4211	33.54834
359.5886	38.35424
359.756	31.57941
359.9234	32.37334
360.0909	33.63628
360.2583	32.65212
360.4257	33.20589
360.5931	35.56044
360.7605	32.36857
360.9279	34.12185
361.0953	31.55439
361.2627	29.86584
361.4301	32.78423
361.5974	37.49104
361.7648	35.24235
361.9322	35.17872
362.0995	30.66434
362.2669	34.1728
362.4343	38.22701
362.6016	34.79667
362.769	32.9813
362.9363	29.6203
363.1036	35.12269
363.271	31.79675
363.4383	32.36896
363.6056	34.36789
363.7729	41.26841
363.9402	39.21175
364.1075	37.89716
364.2748	39.59013
364.4421	34.66867
364.6094	36.7809
364.7767	40.22191
364.944	38.75308
365.1113	37.29094
365.2786	39.66378
365.4458	38.10874
365.6131	38.93217
365.7803	38.92855
365.9476	40.87004
366.1148	43.3917
366.2821	40.49262
366.4493	36.6476
366.6166	36.74024
366.7838	40.56005
366.951	39.81118
367.1182	39.25107
367.2855	36.06549
367.4527	33.66259
367.6199	35.12846
367.7871	39.65423
367.9543	41.3513
368.1215	34.16837
368.2886	34.46385
368.4558	39.58596
368.623	36.77382
368.7902	37.77665
368.9573	43.23929
369.1245	37.40591
369.2917	40.66066
369.4588	43.93249
369.6259	42.68676
369.7931	46.03709
369.9602	39.83253
370.1274	39.77112
370.2945	40.6975
370.4616	39.70311
370.6287	34.28079
370.7958	35.83628
370.963	40.409
371.1301	45.41308
371.2971	45.62156
371.4643	47.39473
371.6313	48.31824
371.7984	40.52346
371.9655	42.18602
372.1326	43.76418
372.2997	44.00441
372.4667	40.67458
372.6338	47.75854
372.8008	45.17743
372.9679	38.01449
373.1349	36.10741
373.3019	41.8048
373.469	39.627
373.636	39.04388
373.803	42.1706
373.9701	50.81403
374.1371	43.80009
374.3041	43.01817
374.4711	45.13258
374.6381	39.01026
374.8051	41.3614
374.9721	45.90774
375.1391	40.83444
375.3061	40.35997
375.473	50.24255
375.64	47.12836
375.8069	42.53017
375.9739	44.46894
376.1409	43.68544
376.3078	44.91098
376.4748	46.10363
376.6417	44.19692
376.8087	46.17259
376.9756	44.8137
377.1425	46.76255
377.3094	48.77151
377.4763	47.67566
377.6432	53.33226
377.8102	47.04511
377.9771	43.03344
378.144	44.79706
378.3109	48.82907
378.4777	49.03799
378.6446	48.87919
378.8115	43.06318
378.9784	47.85383
379.1452	45.52448
379.3121	43.52878
379.4789	41.23819
379.6458	40.43119
379.8127	46.34189
379.9795	47.48486
380.1463	47.4284
380.3131	47.1433
380.48	46.82612
380.6468	52.21161
380.8136	48.57181
380.9804	47.70858
381.1472	48.26461
381.314	45.84487
381.4808	46.97863
381.6476	49.86309
381.8144	44.8051
381.9812	41.15434
382.148	37.94063
382.3147	40.34275
382.4815	45.27246
382.6483	43.78238
382.815	41.90236
382.9818	40.02563
383.1485	40.04517
383.3153	46.70324
383.482	45.31161
383.6487	44.43534
383.8155	44.62162
383.9822	44.42299
384.1489	42.20531
384.3156	45.19633
384.4823	51.07486
384.649	49.70993
384.8157	53.30135
384.9824	51.59946
385.1491	48.8661
385.3158	52.26136
385.4825	49.77717
385.6491	50.79939
385.8158	43.70955
385.9825	46.57172
386.1491	50.82071
386.3157	50.41539
386.4824	52.53798
386.649	55.99968
386.8157	50.48947
386.9823	50.13939
387.1489	51.05788
387.3156	53.24045
387.4821	55.35849
387.6488	57.07967
387.8154	51.36562
387.982	48.88655
388.1486	51.15932
388.3152	53.38726
388.4818	49.85984
388.6483	47.9193
388.8149	55.28301
388.9815	53.38873
389.148	52.52339
389.3146	54.78904
389.4811	58.09217
389.6477	54.64022
389.8142	53.38845
389.9808	52.94364
390.1473	63.68663
390.3138	56.97486
390.4804	54.33748
390.6469	57.84473
390.8134	61.74564
390.9799	57.72966
391.1464	56.54233
391.3129	58.89427
391.4794	60.74373
391.6459	49.8574
391.8124	57.47484
391.9789	56.65347
392.1453	50.81156
392.3118	49.91444
392.4782	53.40799
392.6447	52.73024
392.8112	52.09908
392.9776	46.29722
393.144	43.26481
393.3105	44.40212
393.4769	45.29346
393.6433	45.44844
393.8098	50.8353
393.9762	49.42339
394.1426	52.38039
394.309	52.15144
394.4754	55.18394
394.6418	57.08639
394.8082	62.83477
394.9746	69.29195
395.141	67.22288
395.3073	65.63784
395.4737	65.11254
395.64	65.05762
395.8064	62.57458
395.9728	57.78902
396.1391	66.06039
396.3055	59.06023
396.4718	48.95955
396.6381	50.34593
396.8045	51.03104
396.9708	48.32302
397.1371	49.06133
397.3034	52.08621
397.4697	60.52036
397.636	67.10831
397.8023	75.8335
397.9686	70.39954
398.1349	76.27911
398.3012	69.59148
398.4675	66.11791
398.6337	73.01389
398.8	76.56
398.9662	78.3793
399.1325	75.06213
399.2988	73.97984
399.465	69.85143
399.6313	75.81573
399.7975	70.78426
399.9637	71.95043
400.1299	79.2123
400.2961	73.3829
400.4624	72.06041
400.6286	73.78139
400.7948	76.97445
400.961	80.68485
401.1272	77.05038
401.2934	77.41528
401.4595	74.84158
401.6257	80.66963
401.7919	79.16866
401.9581	80.47446
402.1242	75.95305
402.2904	77.39996
402.4565	78.95621
402.6227	71.98231
402.7888	75.85467
402.955	77.55706
403.1211	73.22308
403.2872	72.85941
403.4533	71.02316
403.6194	82.13004
403.7856	79.36407
403.9517	79.66194
404.1177	80.366
404.2838	77.99355
404.4499	76.19987
404.616	69.51267
404.7821	73.67265
404.9482	77.55957
405.1142	80.691
405.2803	82.81046
405.4464	77.62065
405.6124	78.41639
405.7784	81.35897
405.9445	82.61511
406.1105	76.0619
406.2766	75.76918
406.4426	72.01253
406.6086	75.11674
406.7746	82.20515
406.9406	82.20227
407.1066	80.01053
407.2726	82.66199
407.4386	83.73441
407.6046	83.11012
407.7706	83.1831
407.9366	88.21586
408.1025	87.79514
408.2685	89.11142
408.4344	84.21584
408.6004	85.02483
408.7664	93.57287
408.9323	94.78175
409.0983	101.5811
409.2642	92.48295
409.4301	87.72402
409.596	82.74866
409.762	83.62004
409.9279	82.73144
410.0938	83.3271
410.2597	80.93511
410.4256	82.75632
410.5915	88.90311
410.7574	91.62333
410.9232	92.60935
411.0891	91.97717
411.255	91.54836
411.4209	96.25294
411.5867	100.4228
411.7526	95.68279
411.9184	94.07487
412.0843	100.1387
412.2501	98.06345
412.4159	93.51132
412.5818	97.58942
412.7476	94.56288
412.9134	95.55627
413.0792	92.46717
413.245	94.43104
413.4108	93.01797
413.5766	95.49349
413.7424	97.33154
413.9082	104.5428
414.074	98.02306
414.2397	96.83057
414.4055	93.05553
414.5713	97.40368
414.737	97.52128
414.9028	94.57025
415.0685	98.67557
415.2343	94.8488
415.4	89.21303
415.5658	93.9401
415.7315	99.72249
415.8972	94.71745
416.0629	95.3278
416.2286	98.09234
416.3943	102.9693
416.56	98.52153
416.7257	102.1569
416.8914	98.87866
417.0571	99.33643
417.2228	100.3801
417.3884	94.88383
417.5541	89.57764
417.7198	95.76134
417.8854	97.91965
418.0511	98.26983
418.2167	99.57255
418.3824	92.3404
418.548	95.24203
418.7136	96.52625
418.8792	95.98922
419.0449	98.95692
419.2105	98.88395
419.3761	94.63731
419.5417	96.07719
419.7073	91.23903
419.8729	93.05977
420.0385	94.37025
420.204	97.59482
420.3696	100.6206
420.5352	97.11133
420.7007	102.8643
420.8663	107.7957
421.0319	109.1517
421.1974	104.0065
421.3629	110.3782
421.5285	105.7675
421.694	102.8166
421.8595	108.2893
422.0251	105.9338
422.1906	101.7706
422.3561	97.80457
422.5216	95.78265
422.6871	93.6681
422.8526	97.72512
423.0181	108.6491
423.1835	108.4428
423.349	109.9168
423.5145	104.8004
423.68	110.9497
423.8454	107.4142
424.0109	111.3914
424.1763	110.4936
424.3418	110.9937
424.5072	106.4678
424.6726	108.8496
424.838	108.5358
425.0035	113.2837
425.1689	110.5652
425.3343	115.8628
425.4997	112.4197
425.6651	109.5993
425.8305	106.6435
425.9959	100.252
426.1613	108.9552
426.3267	112.2994
426.492	112.9268
426.6574	117.1233
426.8228	113.49
426.9881	113.2843
427.1534	107.914
427.3188	100.5214
427.4841	104.4161
427.6495	113.0833
427.8148	116.1605
427.9801	115.4153
428.1454	108.5338
428.3107	111.6239
428.476	114.6192
428.6414	108.1884
428.8066	107.005
428.9719	105.9909
429.1372	103.4545
429.3025	108.6923
429.4678	107.0251
429.633	110.4525
429.7983	103.0948
429.9636	98.64685
430.1288	89.28298
430.294	87.24751
430.4593	89.18031
430.6245	97.67406
430.7897	91.92059
430.955	89.73318
431.1202	96.03822
431.2854	101.9259
431.4506	108.8529
431.6158	119.2602
431.781	126.077
431.9462	131.9135
432.1114	126.9517
432.2766	107.988
432.4417	98.62685
432.6069	104.0926
432.772	112.8913
432.9372	125.0889
433.1024	126.0979
433.2675	122.1859
433.4326	123.7903
433.5977	120.4875
433.7629	113.2532
433.928	102.176
434.0931	94.83379
434.2582	109.0009
434.4233	117.0903
434.5884	124.451
434.7535	126.3756
434.9186	124.8192
435.0837	120.7815
435.2488	116.8879
435.4138	117.6615
435.5789	123.3144
435.744	125.6264
435.909	127.9547
436.0741	131.9169
436.2391	138.1048
436.4042	140.461
436.5692	143.7178
436.7342	132.6392
436.8992	128.9881
437.0643	125.9724
437.2293	130.7805
437.3943	130.7045
437.5593	128.7626
437.7243	132.5873
437.8893	131.354
438.0542	131.3094
438.2192	128.1528
438.3842	119.077
438.5491	120.746
438.7141	125.1254
438.8791	122.5443
439.044	125.61
439.209	135.7492
439.3739	140.177
439.5388	142.9295
439.7037	135.889
439.8687	142.1522
440.0336	141.4973
440.1985	140.0878
440.3634	134.1158
440.5283	127.3159
440.6932	131.3425
440.8581	137.5893
441.0229	146.8898
441.1878	149.6593
441.3527	148.4349
441.5175	136.226
441.6824	138.5107
441.8472	140.6382
442.0121	147.4575
442.1769	148.5581
442.3418	148.9526
442.5066	145.477
442.6714	138.092
442.8362	142.6548
443.001	141.7807
443.1659	144.5418
443.3307	144.1942
443.4955	140.1682
443.6602	145.221
443.825	152.534
443.9898	153.8783
444.1546	148.1936
444.3193	148.1625
444.4841	145.5822
444.6488	142.8301
444.8136	148.5185
444.9783	151.6279
445.1431	156.3311
445.3078	149.9979
445.4725	145.3251
445.6372	136.0629
445.802	135.1067
445.9667	137.1704
446.1314	140.0068
446.2961	145.9878
446.4608	144.129
446.6255	155.618
446.7901	150.2964
446.9548	147.4452
447.1195	152.5647
447.2841	161.2599
447.4488	162.3363
447.6134	157.499
447.7781	157.9234
447.9427	156.283
448.1074	153.0111
448.272	149.3436
448.4366	152.776
448.6012	157.8934
448.7658	159.9723
448.9305	152.6311
449.095	149.9699
449.2596	151.1317
449.4242	149.7374
449.5888	153.434
449.7534	158.4662
449.9179	166.0262
450.0825	158.8663
450.2471	164.5651
450.4116	163.3843
450.5762	169.9442
450.7407	171.9577
450.9052	169.223
451.0698	167.8041
451.2343	162.8036
451.3988	168.2791
451.5633	169.1536
451.7278	164.551
451.8923	160.7523
452.0568	174.3762
452.2213	166.9315
452.3858	165.8886
452.5503	163.9505
452.7148	153.6908
452.8792	153.7668
453.0437	155.5272
453.2081	157.0449
453.3726	161.4937
453.537	161.0234
453.7015	174.2721
453.8659	171.8
454.0303	173.7447
454.1947	172.5265
454.3592	169.9028
454.5236	170.1236
454.688	169.7191
454.8524	165.302
455.0168	165.9528
455.1811	165.8742
455.3455	165.9114
455.5099	165.4426
455.6743	169.9981
455.8386	173.9769
456.003	171.5163
456.1673	182.5755
456.3317	175.9219
456.496	172.1866
456.6603	170.0318
456.8246	180.0502
456.989	175.6423
457.1533	179.42
457.3176	176.0612
457.4819	180.6876
457.6462	182.8281
457.8105	178.7011
457.9748	168.3798
458.1391	158.2459
458.3033	172.8528
458.4676	172.8143
458.6319	170.8182
458.7961	180.7815
458.9604	189.1555
459.1246	176.0297
459.2888	172.3722
459.4531	174.4771
459.6173	176.2555
459.7815	167.1421
459.9457	178.3586
460.11	178.6727
460.2741	176.5075
460.4384	177.5627
460.6025	178.3655
460.7667	178.9806
460.9309	176.5507
461.0951	175.2475
461.2592	172.3136
461.4234	172.1516
461.5876	179.457
461.7517	179.5421
461.9159	181.2463
462.08	179.3812
462.2441	181.8981
462.4082	183.4448
462.5724	179.1598
462.7365	176.8509
462.9006	180.3331
463.0647	185.5504
463.2288	184.057
463.3929	182.0703
463.557	177.6059
463.721	183.1694
463.8851	185.7129
464.0492	178.6099
464.2132	179.4363
464.3773	179.7186
464.5414	174.2748
464.7054	178.7719
464.8694	175.9554
465.0334	176.6061
465.1975	183.002
465.3615	178.9027
465.5255	178.2165
465.6895	184.9258
465.8535	191.5478
466.0175	191.0236
466.1815	179.1666
466.3455	180.0226
466.5095	177.2202
466.6734	168.9747
466.8374	169.934
467.0014	177.4476
467.1653	179.4082
467.3293	180.9631
467.4932	181.4973
467.6571	190.5952
467.8211	189.5063
467.985	179.6066
468.1489	178.7791
468.3128	183.7776
468.4767	194.0806
468.6406	190.2867
468.8045	188.9458
468.9684	188.6168
469.1323	189.9964
469.2962	194.7994
469.46	188.0332
469.6239	182.8071
469.7878	190.1441
469.9516	188.2512
470.1154	184.757
470.2793	179.5752
470.4431	180.9872
470.607	183.7599
470.7708	179.3693
470.9346	187.6493
471.0984	191.3821
471.2622	190.2877
471.426	192.4068
471.5898	194.0607
471.7536	194.3839
471.9174	192.9193
472.0811	193.2959
472.2449	204.5954
472.4087	198.4846
472.5724	192.2128
472.7362	193.221
472.8999	192.531
473.0637	194.3784
473.2274	191.3523
473.3911	195.7975
473.5548	192.4176
473.7185	192.7905
473.8822	194.9279
474.0459	196.1411
474.2096	200.1525
474.3733	195.196
474.537	195.163
474.7007	196.9308
474.8643	201.5356
475.028	202.7092
475.1917	204.3462
475.3553	195.4497
475.519	197.8079
475.6826	202.0889
475.8463	195.2927
476.0099	194.0915
476.1735	190.0505
476.3371	194.202
476.5007	187.0669
476.6643	186.3447
476.8279	188.2834
476.9915	193.3025
477.1551	188.5354
477.3187	189.276
477.4823	199.8773
477.6458	202.1443
477.8094	202.2108
477.9729	201.3355
478.1365	195.2883
478.3	193.7352
478.4636	193.7288
478.6271	194.0133
478.7906	190.853
478.9541	194.8268
479.1176	196.5202
479.2812	199.5706
479.4447	203.72
479.6082	201.2362
479.7716	196.2491
479.9351	194.306
480.0986	194.7851
480.2621	198.58
480.4255	191.4816
480.589	200.2581
480.7524	196.5996
480.9159	198.4049
481.0793	191.8673
481.2428	185.973
481.4062	198.8216
481.5696	199.1232
481.733	201.7648
481.8964	202.6041
482.0598	193.5288
482.2232	198.6384
482.3866	196.1857
482.55	195.3584
482.7134	193.5751
482.8768	191.2212
483.0401	195.979
483.2035	199.486
483.3668	199.6728
483.5302	197.6311
483.6935	194.7528
483.8568	197.4492
484.0202	192.8879
484.1835	187.3738
484.3468	192.3364
484.5101	195.4176
484.6734	194.1446
484.8367	193.5897
485	193.9053
485.1633	199.5954
485.3266	199.7922
485.4899	189.5295
485.6531	182.4715
485.8164	178.8884
485.9796	167.8403
486.1429	165.3389
486.3061	166.4487
486.4694	174.0447
486.6326	175.1366
486.7958	183.2296
486.959	185.734
487.1223	185.7856
487.2855	187.8913
487.4486	191.6293
487.6118	189.073
487.775	194.3621
487.9382	197.1949
488.1014	200.1094
488.2646	201.1069
488.4277	198.1722
488.5909	195.8081
488.754	192.3651
488.9171	200.3499
489.0803	191.2593
489.2434	200.6921
489.4066	203.9834
489.5697	210.1783
489.7328	213.3286
489.8959	210.9688
490.059	207.5016
490.2221	208.1544
490.3852	199.1098
490.5482	205.7848
490.7113	200.8504
490.8744	208.3925
491.0374	206.2765
491.2005	206.3105
491.3636	206.5242
491.5266	215.288
491.6896	208.725
491.8527	200.2317
492.0157	187.2158
492.1787	190.8332
492.3417	198.8834
492.5047	206.7517
492.6677	211.6985
492.8307	215.7471
492.9937	217.5537
493.1567	213.8145
493.3196	206.4889
493.4826	204.4764
493.6456	205.4818
493.8085	203.3899
493.9715	200.4006
494.1344	200.8109
494.2974	211.6673
494.4603	219.1931
494.6232	214.8477
494.7861	225.3888
494.949	220.4398
495.1119	209.5226
495.2748	208.8511
495.4377	208.0816
495.6006	202.1491
495.7635	201.9049
495.9264	194.8728
496.0892	202.0374
496.2521	217.9061
496.4149	220.595
496.5778	214.9806
496.7407	209.1235
496.9035	211.2074
497.0663	213.51
497.2291	209.4005
497.3919	215.8599
497.5547	218.9883
497.7176	215.8558
497.8804	214.0454
498.0432	211.4791
498.2059	207.0043
498.3687	200.9924
498.5315	202.8274
498.6942	206.0264
498.857	211.5893
499.0198	213.5224
499.1825	213.2814
499.3452	211.8558
499.508	210.0641
499.6707	214.7841
499.8334	213.8331
499.9962	213.7144
500.1589	210.2419
500.3216	206.086
500.4843	200.0889
500.6469	208.7824
500.8096	204.6986
500.9723	209.9428
501.135	207.0433
501.2976	203.9869
501.4603	208.6604
501.623	205.4271
501.7856	201.6498
501.9482	199.153
502.1109	205.6998
502.2735	207.0398
502.4361	209.0591
502.5987	213.8846
502.7614	217.1773
502.924	218.2458
503.0865	215.7757
503.2491	210.5188
503.4117	212.7443
503.5743	208.856
503.7368	210.1698
503.8994	207.4306
504.062	209.3439
504.2245	202.072
504.3871	210.2944
504.5496	217.5566
504.7121	213.1194
504.8746	218.8456
505.0372	213.0027
505.1997	210.027
505.3622	212.6597
505.5247	220.4301
505.6872	215.0247
505.8497	221.1906
506.0121	227.481
506.1746	224.3267
506.3371	222.7267
506.4995	216.4825
506.662	211.328
506.8244	218.4255
506.9869	226.517
507.1493	219.6555
507.3117	223.9108
507.4742	223.1133
507.6366	218.3876
507.799	216.3059
507.9614	214.417
508.1238	209.3783
508.2862	215.2787
508.4485	219.2032
508.6109	218.6579
508.7733	225.5199
508.9357	222.7139
509.098	226.0605
509.2604	226.4367
509.4227	227.3791
509.5851	224.89
509.7474	221.8051
509.9097	216.984
510.072	222.2849
510.2343	225.5287
510.3966	222.9607
510.5589	232.3999
510.7212	226.9199
510.8835	221.1594
511.0458	223.4478
511.2081	232.596
511.3703	230.6492
511.5326	227.7779
511.6949	228.4696
511.8571	224.8377
512.0193	229.8985
512.1816	231.5176
512.3438	226.5121
512.506	218.1924
512.6682	216.3205
512.8304	217.7993
512.9926	225.9454
513.1548	226.8998
513.317	221.0783
513.4792	223.5142
513.6414	228.2032
513.8035	218.6156
513.9657	218.3468
514.1279	215.428
514.29	214.9796
514.4521	217.5745
514.6143	217.481
514.7764	223.6504
514.9385	219.6258
515.1006	220.1044
515.2628	219.3445
515.4249	213.9678
515.587	225.2916
515.7491	228.0716
515.9111	228.6176
516.0732	229.3245
516.2353	218.4348
516.3973	214.0604
