SPECTRUM DATA FILE
SpectrumCount:	1
PixelCount:	3648
UserName:	ToughBook User
SampleName:	
LightSource:	
Comments:	
DeviceName:	Qwave
DeviceManufacturer:	Broadcom
DeviceSerialNo:	11311

Name:	last spectrum
Date:	2024-05-02T14:50:10.8925371+02:00
ExposureTime:	0.02
TemporalAvg:	1
IntensityUnit:	normalizedCounts
CCDLoadLevel:	0.0469164
Temperature:	32.47928
DiagramColor:	200
ProcessingSteps:	335

Wavelength [nm]	Intensity1
334.421	11.3423
334.5891	14.12764
334.7573	11.57267
334.9254	10.78358
335.0935	8.484306
335.2616	11.31627
335.4297	12.21075
335.5978	11.68465
335.7659	9.355005
335.934	10.28808
336.1021	10.08843
336.2701	9.56105
336.4382	8.738641
336.6063	9.831096
336.7744	9.567802
336.9424	2.946151
337.1105	7.140007
337.2785	8.0127
337.4466	8.436745
337.6146	13.58948
337.7827	12.96623
337.9507	12.39266
338.1187	10.76402
338.2867	10.98842
338.4548	13.98651
338.6228	8.747703
338.7908	7.686648
338.9588	9.733515
339.1268	10.53735
339.2948	10.07488
339.4628	8.884114
339.6308	13.1453
339.7988	9.967561
339.9667	9.709268
340.1347	11.55811
340.3027	9.971182
340.4707	11.82833
340.6386	8.799331
340.8066	10.7985
340.9745	6.754233
341.1425	11.74257
341.3104	10.63378
341.4784	11.44518
341.6463	13.17092
341.8142	11.50133
341.9821	10.87793
342.1501	14.77901
342.318	11.32745
342.4859	11.61405
342.6538	11.82719
342.8217	9.642706
342.9896	10.46952
343.1575	12.9967
343.3254	11.48712
343.4933	9.26265
343.6612	11.9918
343.829	14.53158
343.9969	10.58895
344.1648	3.835531
344.3326	11.91848
344.5005	12.37963
344.6683	12.00928
344.8362	15.09768
345.004	9.152788
345.1719	14.17115
345.3397	14.82935
345.5075	11.81707
345.6754	12.2468
345.8432	15.65986
346.011	16.09547
346.1788	14.85623
346.3466	13.20397
346.5144	11.29813
346.6822	14.49041
346.85	15.33861
347.0178	16.20625
347.1856	11.60384
347.3534	14.19646
347.5211	14.9822
347.6889	8.591846
347.8567	8.530723
348.0244	11.39602
348.1922	11.81305
348.3599	10.55626
348.5277	11.84109
348.6954	13.7222
348.8632	14.04932
349.0309	11.33096
349.1986	13.04297
349.3663	15.64992
349.5341	13.43696
349.7018	11.7278
349.8695	14.49017
350.0372	13.93139
350.2049	18.36288
350.3726	17.83098
350.5403	13.83422
350.7079	15.92373
350.8756	11.22668
351.0433	16.5915
351.211	15.2006
351.3786	12.39514
351.5463	12.1689
351.714	10.77411
351.8816	11.05957
352.0493	16.01526
352.2169	11.02886
352.3846	13.01909
352.5522	13.85594
352.7198	12.87707
352.8875	16.1746
353.0551	10.67478
353.2227	12.22844
353.3903	16.1618
353.5579	19.86487
353.7255	16.11358
353.8931	10.36093
354.0607	10.86095
354.2283	13.23661
354.3958	15.84578
354.5634	17.80141
354.731	10.41844
354.8986	14.9564
355.0661	21.60259
355.2337	18.30941
355.4012	14.73498
355.5688	16.39075
355.7363	18.90198
355.9039	20.04727
356.0714	16.04684
356.239	16.3858
356.4065	13.94347
356.574	14.56514
356.7415	13.61009
356.909	16.07124
357.0765	15.67147
357.244	12.25107
357.4115	15.13834
357.579	13.98134
357.7465	16.81928
357.914	15.7162
358.0815	9.246055
358.249	10.72514
358.4164	13.33036
358.5839	11.26679
358.7513	13.44867
358.9188	13.77907
359.0862	18.73633
359.2537	13.65554
359.4211	17.83446
359.5886	17.73023
359.756	20.64598
359.9234	14.09699
360.0909	14.97715
360.2583	17.19075
360.4257	15.53883
360.5931	15.12683
360.7605	17.30941
360.9279	15.33156
361.0953	19.1529
361.2627	19.96722
361.4301	18.92806
361.5974	18.24562
361.7648	21.11154
361.9322	14.70244
362.0995	17.53994
362.2669	16.84355
362.4343	14.38813
362.6016	15.67662
362.769	16.28445
362.9363	16.85808
363.1036	15.11709
363.271	16.03475
363.4383	14.39246
363.6056	18.58523
363.7729	15.89766
363.9402	18.83454
364.1075	18.52056
364.2748	14.59665
364.4421	17.8197
364.6094	16.57432
364.7767	18.31857
364.944	16.27226
365.1113	19.81213
365.2786	20.22329
365.4458	19.928
365.6131	23.48627
365.7803	23.38908
365.9476	19.18288
366.1148	17.2454
366.2821	20.44438
366.4493	27.3315
366.6166	21.34763
366.7838	17.02993
366.951	17.55445
367.1182	22.2816
367.2855	19.85847
367.4527	16.33147
367.6199	21.25121
367.7871	20.43021
367.9543	17.83811
368.1215	19.86004
368.2886	18.42109
368.4558	19.16745
368.623	20.20772
368.7902	20.22862
368.9573	19.48287
369.1245	21.24722
369.2917	23.21919
369.4588	22.74494
369.6259	19.85407
369.7931	16.70677
369.9602	20.34481
370.1274	27.49185
370.2945	21.04928
370.4616	10.95675
370.6287	18.28209
370.7958	18.44971
370.963	22.00132
371.1301	25.26582
371.2971	22.69789
371.4643	22.82376
371.6313	23.69792
371.7984	17.75273
371.9655	21.33606
372.1326	17.54124
372.2997	18.1765
372.4667	22.58755
372.6338	22.96378
372.8008	24.95535
372.9679	21.38876
373.1349	20.11239
373.3019	19.70701
373.469	20.87369
373.636	19.72273
373.803	22.48345
373.9701	22.67107
374.1371	22.91398
374.3041	24.03113
374.4711	22.93887
374.6381	18.65239
374.8051	18.52599
374.9721	20.38241
375.1391	23.46111
375.3061	20.7216
375.473	24.27474
375.64	23.57925
375.8069	23.46209
375.9739	24.53835
376.1409	24.31262
376.3078	20.76873
376.4748	23.32597
376.6417	21.2369
376.8087	28.70305
376.9756	22.28118
377.1425	23.51725
377.3094	25.20369
377.4763	25.41534
377.6432	21.69564
377.8102	26.26074
377.9771	23.13161
378.144	23.68865
378.3109	30.72874
378.4777	28.5792
378.6446	30.10103
378.8115	24.83224
378.9784	21.38065
379.1452	20.12835
379.3121	25.11643
379.4789	22.62974
379.6458	23.06102
379.8127	24.06017
379.9795	25.54615
380.1463	26.26693
380.3131	26.64159
380.48	29.85092
380.6468	29.60498
380.8136	27.28816
380.9804	29.21773
381.1472	27.08112
381.314	21.49646
381.4808	23.2034
381.6476	24.75374
381.8144	23.25461
381.9812	24.06592
382.148	23.27829
382.3147	19.91974
382.4815	21.29255
382.6483	22.24472
382.815	22.89573
382.9818	18.23055
383.1485	19.48864
383.3153	20.58927
383.482	19.49369
383.6487	19.76321
383.8155	17.21062
383.9822	18.56853
384.1489	23.66868
384.3156	30.19429
384.4823	24.11535
384.649	26.90073
384.8157	26.439
384.9824	29.70182
385.1491	27.67281
385.3158	20.52765
385.4825	20.15592
385.6491	26.94852
385.8158	24.86914
385.9825	24.95234
386.1491	26.49721
386.3157	24.07862
386.4824	30.6739
386.649	26.11392
386.8157	27.17714
386.9823	22.50353
387.1489	22.93019
387.3156	26.02975
387.4821	32.61713
387.6488	25.55565
387.8154	25.12065
387.982	29.03134
388.1486	24.03638
388.3152	26.84994
388.4818	26.68504
388.6483	27.06539
388.8149	22.65558
388.9815	25.09384
389.148	30.97992
389.3146	28.47684
389.4811	30.50887
389.6477	29.4305
389.8142	32.01382
389.9808	32.06345
390.1473	32.96178
390.3138	31.12339
390.4804	29.64601
390.6469	30.62438
390.8134	31.97595
390.9799	31.34636
391.1464	34.10244
391.3129	35.08841
391.4794	37.11113
391.6459	39.8302
391.8124	38.24478
391.9789	34.81336
392.1453	30.1923
392.3118	28.53354
392.4782	27.77855
392.6447	27.09553
392.8112	16.96869
392.9776	20.10127
393.144	16.98139
393.3105	9.856445
393.4769	17.95544
393.6433	17.7106
393.8098	24.03999
393.9762	25.0529
394.1426	28.6951
394.309	32.32056
394.4754	32.92853
394.6418	37.76331
394.8082	33.56326
394.9746	40.08937
395.141	39.08839
395.3073	40.99417
395.4737	40.52623
395.64	39.68377
395.8064	35.93134
395.9728	33.34224
396.1391	33.40113
396.3055	28.80166
396.4718	30.00822
396.6381	27.88162
396.8045	23.69958
396.9708	22.62448
397.1371	21.65023
397.3034	21.88181
397.4697	32.25716
397.636	37.53058
397.8023	40.89557
397.9686	46.23037
398.1349	48.86187
398.3012	43.91373
398.4675	42.74428
398.6337	45.09119
398.8	42.74751
398.9662	51.70013
399.1325	48.0369
399.2988	48.54395
399.465	47.6206
399.6313	51.36349
399.7975	50.15831
399.9637	46.73156
400.1299	45.61761
400.2961	53.05919
400.4624	50.29456
400.6286	42.80564
400.7948	45.2587
400.961	53.58208
401.1272	52.02195
401.2934	49.25993
401.4595	52.70741
401.6257	52.62253
401.7919	52.06107
401.9581	59.82081
402.1242	53.19891
402.2904	51.08462
402.4565	52.94797
402.6227	52.96059
402.7888	53.08215
402.955	52.42126
403.1211	46.39007
403.2872	42.5247
403.4533	47.25713
403.6194	50.64608
403.7856	55.77503
403.9517	54.94954
404.1177	57.10002
404.2838	53.3037
404.4499	49.29931
404.616	40.38219
404.7821	48.84015
404.9482	54.11638
405.1142	51.27052
405.2803	50.03269
405.4464	52.89267
405.6124	52.68793
405.7784	45.06022
405.9445	53.74156
406.1105	54.63064
406.2766	53.01212
406.4426	48.51438
406.6086	52.93742
406.7746	54.88317
406.9406	51.3559
407.1066	52.03103
407.2726	49.8074
407.4386	54.24335
407.6046	55.23488
407.7706	52.20044
407.9366	53.65946
408.1025	58.39529
408.2685	56.78031
408.4344	55.20323
408.6004	60.22542
408.7664	63.86156
408.9323	63.92556
409.0983	57.48766
409.2642	59.01811
409.4301	63.17103
409.596	57.59678
409.762	59.0136
409.9279	52.64933
410.0938	49.39541
410.2597	54.43703
410.4256	54.63966
410.5915	57.79507
410.7574	59.60881
410.9232	56.44527
411.0891	52.92711
411.255	61.23715
411.4209	61.57455
411.5867	67.54819
411.7526	63.95059
411.9184	66.60974
412.0843	65.4755
412.2501	66.14365
412.4159	64.4101
412.5818	65.53111
412.7476	65.69188
412.9134	65.09377
413.0792	62.71373
413.245	62.54078
413.4108	61.42341
413.5766	63.19227
413.7424	65.45793
413.9082	65.73292
414.074	68.55899
414.2397	63.66499
414.4055	64.09045
414.5713	66.58657
414.737	64.6102
414.9028	71.38609
415.0685	65.38541
415.2343	62.60681
415.4	64.27267
415.5658	63.547
415.7315	62.40277
415.8972	61.55941
416.0629	70.70685
416.2286	68.30207
416.3943	66.22811
416.56	65.39302
416.7257	64.87834
416.8914	69.98506
417.0571	70.46294
417.2228	61.99291
417.3884	61.04499
417.5541	61.07738
417.7198	64.55227
417.8854	65.31134
418.0511	67.75792
418.2167	65.62875
418.3824	67.90482
418.548	69.96526
418.7136	66.56284
418.8792	64.29953
419.0449	69.71613
419.2105	75.08067
419.3761	71.53679
419.5417	68.18459
419.7073	64.7115
419.8729	65.78426
420.0385	66.46483
420.204	64.31837
420.3696	70.58077
420.5352	76.93707
420.7007	71.21756
420.8663	74.54485
421.0319	69.97801
421.1974	69.28793
421.3629	74.99629
421.5285	78.03906
421.694	69.6778
421.8595	65.929
422.0251	73.51392
422.1906	74.4295
422.3561	68.28986
422.5216	64.90604
422.6871	60.16665
422.8526	67.17614
423.0181	76.39716
423.1835	73.76466
423.349	74.86404
423.5145	74.86192
423.68	70.49178
423.8454	73.36659
424.0109	75.33813
424.1763	78.02657
424.3418	71.8453
424.5072	76.75572
424.6726	75.68453
424.838	68.98464
425.0035	71.56191
425.1689	74.61401
425.3343	75.34299
425.4997	78.04025
425.6651	80.28831
425.8305	76.59424
425.9959	76.14875
426.1613	72.88092
426.3267	81.28436
426.492	80.0782
426.6574	81.04105
426.8228	72.57064
426.9881	73.55402
427.1534	67.77166
427.3188	63.0443
427.4841	65.36958
427.6495	71.66354
427.8148	76.87952
427.9801	78.26932
428.1454	76.73184
428.3107	73.38099
428.476	73.55962
428.6414	75.52599
428.8066	67.93015
428.9719	69.23584
429.1372	71.56429
429.3025	74.56256
429.4678	73.31477
429.633	68.4473
429.7983	62.49897
429.9636	56.32452
430.1288	54.25272
430.294	59.14062
430.4593	61.68405
430.6245	52.93072
430.7897	48.55016
430.955	56.24815
431.1202	62.1171
431.2854	63.57399
431.4506	71.42754
431.6158	83.84618
431.781	91.21552
431.9462	89.02728
432.1114	84.77272
432.2766	78.66467
432.4417	72.31983
432.6069	73.37151
432.772	76.73254
432.9372	83.60333
433.1024	87.01228
433.2675	88.53831
433.4326	93.12746
433.5977	86.28759
433.7629	77.18285
433.928	70.05026
434.0931	67.90293
434.2582	71.49305
434.4233	78.48882
434.5884	90.07259
434.7535	88.02087
434.9186	95.73075
435.0837	88.18159
435.2488	83.05402
435.4138	81.17641
435.5789	83.82339
435.744	87.91605
435.909	90.25043
436.0741	93.14635
436.2391	101.5234
436.4042	101.4957
436.5692	92.6117
436.7342	92.28773
436.8992	92.38985
437.0643	89.32392
437.2293	83.55275
437.3943	83.86337
437.5593	91.61234
437.7243	86.48472
437.8893	96.50405
438.0542	94.50412
438.2192	89.64011
438.3842	79.66745
438.5491	79.41456
438.7141	87.94839
438.8791	91.92351
439.044	87.62493
439.209	90.95399
439.3739	92.35522
439.5388	98.68426
439.7037	96.795
439.8687	96.58038
440.0336	94.23489
440.1985	92.56565
440.3634	90.93156
440.5283	89.22556
440.6932	91.53522
440.8581	98.65082
441.0229	105.0595
441.1878	104.9267
441.3527	100.5019
441.5175	98.07774
441.6824	101.2805
441.8472	102.5451
442.0121	109.8667
442.1769	103.3903
442.3418	107.4888
442.5066	101.1437
442.6714	107.5721
442.8362	105.9623
443.001	107.6209
443.1659	105.4005
443.3307	101.315
443.4955	98.38561
443.6602	102.7688
443.825	101.6729
443.9898	104.0701
444.1546	107.4894
444.3193	108.103
444.4841	100.6816
444.6488	109.164
444.8136	111.6871
444.9783	112.6464
445.1431	107.9841
445.3078	109.9913
445.4725	105.9072
445.6372	96.56925
445.802	91.7295
445.9667	90.66022
446.1314	103.3298
446.2961	101.7117
446.4608	104.067
446.6255	106.8861
446.7901	106.7451
446.9548	102.8026
447.1195	101.4984
447.2841	108.1184
447.4488	113.0395
447.6134	113.4569
447.7781	119.0745
447.9427	111.7104
448.1074	106.6551
448.272	110.466
448.4366	116.0821
448.6012	112.3621
448.7658	114.2699
448.9305	124.2212
449.095	121.446
449.2596	113.0025
449.4242	111.7841
449.5888	112.1793
449.7534	118.6256
449.9179	119.8834
450.0825	119.3397
450.2471	123.5001
450.4116	125.8314
450.5762	125.148
450.7407	127.1933
450.9052	123.3167
451.0698	123.3628
451.2343	121.0826
451.3988	121.9778
451.5633	117.6202
451.7278	119.4457
451.8923	121.2267
452.0568	126.6023
452.2213	125.8776
452.3858	123.7759
452.5503	120.3886
452.7148	109.6505
452.8792	110.3423
453.0437	109.8842
453.2081	112.3395
453.3726	115.1827
453.537	114.053
453.7015	120.1832
453.8659	129.1317
454.0303	124.3782
454.1947	123.7953
454.3592	122.7148
454.5236	121.8939
454.688	114.5697
454.8524	117.4716
455.0168	118.0954
455.1811	121.1212
455.3455	118.1359
455.5099	115.9865
455.6743	121.3509
455.8386	122.9963
456.003	127.8376
456.1673	133.1194
456.3317	128.5623
456.496	125.9119
456.6603	126.9801
456.8246	127.1864
456.989	130.325
457.1533	130.539
457.3176	119.6803
457.4819	126.7882
457.6462	133.5783
457.8105	130.7315
457.9748	129.6185
458.1391	126.5948
458.3033	122.3137
458.4676	124.364
458.6319	122.5039
458.7961	129.5191
458.9604	127.4209
459.1246	124.1445
459.2888	125.0231
459.4531	122.7128
459.6173	125.692
459.7815	129.4963
459.9457	127.461
460.11	126.8908
460.2741	129.9924
460.4384	122.9619
460.6025	121.0434
460.7667	126.6707
460.9309	127.53
461.0951	129.9436
461.2592	135.9655
461.4234	135.8221
461.5876	129.5754
461.7517	131.4002
461.9159	136.1993
462.08	132.5194
462.2441	130.6671
462.4082	123.8369
462.5724	134.3329
462.7365	135.4068
462.9006	131.9307
463.0647	130.009
463.2288	136.4632
463.3929	137.6272
463.557	128.4444
463.721	131.8427
463.8851	129.5136
464.0492	126.1857
464.2132	131.3126
464.3773	127.9329
464.5414	128.7311
464.7054	124.9128
464.8694	122.795
465.0334	128.127
465.1975	131.9301
465.3615	131.4073
465.5255	133.2828
465.6895	128.0381
465.8535	126.7324
466.0175	131.4204
466.1815	138.3334
466.3455	131.4118
466.5095	129.5968
466.6734	121.4456
466.8374	121.2549
467.0014	125.0306
467.1653	132.8252
467.3293	134.7621
467.4932	133.0197
467.6571	139.4209
467.8211	137.5249
467.985	128.354
468.1489	124.814
468.3128	132.7723
468.4767	133.7312
468.6406	134.4487
468.8045	139.8146
468.9684	131.9484
469.1323	133.7431
469.2962	133.0555
469.46	140.8502
469.6239	145.6706
469.7878	136.3362
469.9516	137.1867
470.1154	132.5723
470.2793	123.6531
470.4431	127.396
470.607	131.8911
470.7708	130.7528
470.9346	133.231
471.0984	134.5658
471.2622	132.2593
471.426	131.7436
471.5898	137.9338
471.7536	140.9423
471.9174	145.0052
472.0811	145.263
472.2449	142.0288
472.4087	140.8738
472.5724	145.6546
472.7362	142.2132
472.8999	138.8101
473.0637	138.1914
473.2274	140.452
473.3911	143.1835
473.5548	147.3277
473.7185	138.9771
473.8822	145.7598
474.0459	146.2128
474.2096	145.6048
474.3733	142.1216
474.537	141.7371
474.7007	143.1062
474.8643	149.2364
475.028	147.0484
475.1917	148.1467
475.3553	139.0356
475.519	140.853
475.6826	134.2669
475.8463	142.5076
476.0099	140.6134
476.1735	139.5891
476.3371	139.9342
476.5007	137.0307
476.6643	137.0223
476.8279	136.212
476.9915	141.0765
477.1551	135.4457
477.3187	147.2494
477.4823	149.8763
477.6458	148.5664
477.8094	146.2703
477.9729	145.2225
478.1365	149.8325
478.3	144.1372
478.4636	141.4552
478.6271	140.4949
478.7906	140.4516
478.9541	137.2328
479.1176	136.14
479.2812	140.845
479.4447	142.5399
479.6082	149.0638
479.7716	142.733
479.9351	137.3663
480.0986	134.9823
480.2621	142.1662
480.4255	141.5023
480.589	143.0287
480.7524	140.0104
480.9159	139.1088
481.0793	142.999
481.2428	139.1847
481.4062	142.6618
481.5696	147.3704
481.733	152.6212
481.8964	147.3083
482.0598	137.5391
482.2232	139.5824
482.3866	134.8752
482.55	143.3436
482.7134	146.5719
482.8768	149.588
483.0401	139.4454
483.2035	140.1898
483.3668	144.5383
483.5302	140.5735
483.6935	149.2541
483.8568	150.8228
484.0202	142.8427
484.1835	142.3724
484.3468	140.7064
484.5101	139.2754
484.6734	142.8846
484.8367	144.051
485	135.7959
485.1633	142.3828
485.3266	139.3847
485.4899	142.426
485.6531	136.1739
485.8164	130.2445
485.9796	118.2052
486.1429	114.553
486.3061	119.0866
486.4694	126.9439
486.6326	132.1043
486.7958	133.5065
486.959	134.3353
487.1223	134.2917
487.2855	133.9404
487.4486	139.2274
487.6118	145.5737
487.775	141.4849
487.9382	146.6408
488.1014	148.4051
488.2646	146.6362
488.4277	148.1066
488.5909	142.6373
488.754	142.6511
488.9171	142.0678
489.0803	140.9882
489.2434	142.9374
489.4066	146.5644
489.5697	146.1655
489.7328	152.4109
489.8959	153.1216
490.059	149.549
490.2221	149.4217
490.3852	149.6062
490.5482	154.36
490.7113	155.7764
490.8744	146.7836
491.0374	141.3019
491.2005	145.7587
491.3636	151.6405
491.5266	151.3674
491.6896	147.7147
491.8527	145.041
492.0157	144.4332
492.1787	134.806
492.3417	135.5999
492.5047	141.2054
492.6677	149.2334
492.8307	152.5809
492.9937	151.9341
493.1567	150.3215
493.3196	148.6221
493.4826	150.4999
493.6456	150.2047
493.8085	143.2833
493.9715	145.6583
494.1344	148.7601
494.2974	147.7568
494.4603	158.1236
494.6232	146.9618
494.7861	152.7959
494.949	153.367
495.1119	153.2339
495.2748	150.5945
495.4377	149.0381
495.6006	143.6949
495.7635	142.448
495.9264	149.6377
496.0892	150.4859
496.2521	155.2212
496.4149	155.3866
496.5778	154.6423
496.7407	147.6389
496.9035	143.4261
497.0663	147.6615
497.2291	150.3593
497.3919	153.0791
497.5547	155.5487
497.7176	151.0962
497.8804	153.4048
498.0432	151.0476
498.2059	140.2487
498.3687	141.9226
498.5315	141.7514
498.6942	145.8215
498.857	155.1516
499.0198	162.4661
499.1825	160.8168
499.3452	150.5027
499.508	153.0258
499.6707	157.2859
499.8334	155.0732
499.9962	151.8788
500.1589	156.822
500.3216	151.0883
500.4843	144.3466
500.6469	143.1199
500.8096	146.6149
500.9723	155.0812
501.135	152.4845
501.2976	147.2425
501.4603	144.8394
501.623	146.3894
501.7856	144.7966
501.9482	150.9888
502.1109	145.217
502.2735	147.746
502.4361	151.9658
502.5987	150.3894
502.7614	146.1061
502.924	153.028
503.0865	159.4382
503.2491	158.0376
503.4117	150.1852
503.5743	153.2868
503.7368	156.5832
503.8994	150.5191
504.062	143.7719
504.2245	140.5165
504.3871	149.0604
504.5496	155.1578
504.7121	152.4415
504.8746	150.2074
505.0372	147.7923
505.1997	152.9914
505.3622	153.5617
505.5247	159.1302
505.6872	163.9381
505.8497	159.8574
506.0121	165.3713
506.1746	161.2655
506.3371	164.8029
506.4995	160.2317
506.662	158.1659
506.8244	153.7443
506.9869	149.1784
507.1493	155.3019
507.3117	159.6478
507.4742	156.7031
507.6366	157.1104
507.799	152.185
507.9614	146.8802
508.1238	146.0927
508.2862	158.2881
508.4485	160.0674
508.6109	158.087
508.7733	160.8595
508.9357	158.9945
509.098	164.4194
509.2604	165.7429
509.4227	169.4285
509.5851	157.6265
509.7474	157.3477
509.9097	156.6065
510.072	156.5702
510.2343	156.8828
510.3966	162.3077
510.5589	158.3687
510.7212	152.6386
510.8835	155.4518
511.0458	157.3566
511.2081	159.7474
511.3703	167.6788
511.5326	163.5941
511.6949	167.4446
511.8571	167.4396
512.0193	164.2819
512.1816	162.0888
512.3438	151.3636
512.506	153.6973
512.6682	152.5168
512.8304	157.0708
512.9926	160.9447
513.1548	154.9651
513.317	157.3615
513.4792	158.3398
513.6414	155.5251
513.8035	154.1478
513.9657	146.1376
514.1279	152.647
514.29	155.0889
514.4521	148.866
514.6143	154.9667
514.7764	157.2453
514.9385	156.7644
515.1006	156.3702
515.2628	149.0463
515.4249	154.63
515.587	157.6321
515.7491	153.318
515.9111	152.9717
516.0732	156.1112
516.2353	156.0005
516.3973	146.5014
