SPECTRUM DATA FILE
SpectrumCount:	1
PixelCount:	3648
UserName:	ToughBook User
SampleName:	
LightSource:	
Comments:	
DeviceName:	Qwave
DeviceManufacturer:	Broadcom
DeviceSerialNo:	11311

Name:	last spectrum
Date:	2024-05-02T15:03:54.6529661+02:00
ExposureTime:	0.02
TemporalAvg:	1
IntensityUnit:	normalizedCounts
CCDLoadLevel:	0.04198906
Temperature:	29.12637
DiagramColor:	200
ProcessingSteps:	335

Wavelength [nm]	Intensity1
334.421	5.55482
334.5891	7.954897
334.7573	6.674355
334.9254	10.52911
335.0935	6.801973
335.2616	11.46399
335.4297	10.70104
335.5978	7.970955
335.7659	10.54138
335.934	5.547527
336.1021	7.160971
336.2701	9.005916
336.4382	6.853734
336.6063	12.66165
336.7744	6.741124
336.9424	12.25322
337.1105	12.65449
337.2785	8.706531
337.4466	10.30362
337.6146	12.48243
337.7827	10.98877
337.9507	6.639876
338.1187	8.652032
338.2867	7.849379
338.4548	16.17277
338.6228	15.41228
338.7908	8.176861
338.9588	10.78057
339.1268	6.083988
339.2948	10.72636
339.4628	8.099334
339.6308	10.04383
339.7988	12.15017
339.9667	13.13957
340.1347	11.66023
340.3027	12.31775
340.4707	9.335821
340.6386	10.39702
340.8066	7.69441
340.9745	12.12796
341.1425	11.09239
341.3104	8.866445
341.4784	6.980796
341.6463	11.01239
341.8142	10.84424
341.9821	14.33538
342.1501	11.95304
342.318	8.520246
342.4859	8.864708
342.6538	14.53678
342.8217	13.49748
342.9896	11.86968
343.1575	8.285933
343.3254	10.38659
343.4933	13.10056
343.6612	13.50193
343.829	7.235617
343.9969	13.59026
344.1648	12.22944
344.3326	8.907354
344.5005	7.829369
344.6683	11.63342
344.8362	12.21039
345.004	13.92791
345.1719	11.17119
345.3397	13.24136
345.5075	12.73765
345.6754	13.06927
345.8432	8.63218
346.011	9.265771
346.1788	14.3908
346.3466	13.06416
346.5144	11.64632
346.6822	8.291827
346.85	14.4544
347.0178	7.666272
347.1856	12.22622
347.3534	8.073967
347.5211	8.604229
347.6889	8.312547
347.8567	12.22644
348.0244	8.248904
348.1922	9.189837
348.3599	13.57956
348.5277	13.55769
348.6954	8.347971
348.8632	11.06183
349.0309	11.50301
349.1986	15.04242
349.3663	13.38566
349.5341	15.52685
349.7018	16.47172
349.8695	9.820264
350.0372	10.65916
350.2049	11.22133
350.3726	14.4427
350.5403	14.51985
350.7079	10.94835
350.8756	11.85777
351.0433	11.35736
351.211	8.369628
351.3786	13.79329
351.5463	11.61781
351.714	15.77455
351.8816	11.04172
352.0493	14.88125
352.2169	12.72407
352.3846	10.48616
352.5522	9.478608
352.7198	12.65613
352.8875	14.57055
353.0551	13.77334
353.2227	11.98948
353.3903	14.97177
353.5579	12.74779
353.7255	14.27144
353.8931	12.219
354.0607	19.61089
354.2283	13.5641
354.3958	15.21333
354.5634	17.88568
354.731	17.4205
354.8986	13.67353
355.0661	14.42568
355.2337	12.61258
355.4012	11.91322
355.5688	17.06683
355.7363	16.21482
355.9039	11.31355
356.0714	11.08922
356.239	12.35359
356.4065	16.35385
356.574	16.60076
356.7415	16.45026
356.909	11.72078
357.0765	11.85102
357.244	11.48402
357.4115	17.89705
357.579	20.43039
357.7465	17.17413
357.914	12.09934
358.0815	5.991173
358.249	7.999954
358.4164	10.24906
358.5839	8.678401
358.7513	9.393992
358.9188	12.54025
359.0862	13.19101
359.2537	17.59002
359.4211	15.98428
359.5886	13.19696
359.756	13.30991
359.9234	16.50325
360.0909	18.19207
360.2583	12.32949
360.4257	13.00301
360.5931	14.48902
360.7605	13.40674
360.9279	11.80591
361.0953	11.64314
361.2627	11.17887
361.4301	15.84875
361.5974	15.39066
361.7648	9.475462
361.9322	18.57516
362.0995	15.94947
362.2669	15.41223
362.4343	13.56427
362.6016	19.43592
362.769	18.22736
362.9363	15.66098
363.1036	16.32389
363.271	17.81397
363.4383	17.26735
363.6056	17.34706
363.7729	10.19496
363.9402	15.76729
364.1075	14.75973
364.2748	13.66702
364.4421	16.24997
364.6094	11.08249
364.7767	9.181729
364.944	16.14519
365.1113	16.58103
365.2786	18.7433
365.4458	18.09082
365.6131	20.43519
365.7803	20.21883
365.9476	22.0973
366.1148	19.21623
366.2821	18.75598
366.4493	16.92225
366.6166	17.29392
366.7838	14.82471
366.951	19.60328
367.1182	14.4371
367.2855	18.56289
367.4527	19.7758
367.6199	18.59339
367.7871	18.43887
367.9543	19.60688
368.1215	19.06545
368.2886	16.92275
368.4558	14.49754
368.623	16.86915
368.7902	16.82079
368.9573	18.06229
369.1245	20.4637
369.2917	18.20976
369.4588	23.43077
369.6259	22.44658
369.7931	23.52453
369.9602	19.94655
370.1274	17.64572
370.2945	20.96796
370.4616	23.52043
370.6287	19.32119
370.7958	20.1634
370.963	17.45473
371.1301	20.93559
371.2971	24.11226
371.4643	21.91775
371.6313	20.66765
371.7984	22.08896
371.9655	18.56215
372.1326	13.89863
372.2997	19.92172
372.4667	18.57505
372.6338	20.99899
372.8008	22.10881
372.9679	16.93995
373.1349	18.20688
373.3019	17.08904
373.469	18.48193
373.636	19.45131
373.803	18.96511
373.9701	21.91533
374.1371	22.4833
374.3041	25.5601
374.4711	26.73902
374.6381	16.54061
374.8051	17.97152
374.9721	18.87389
375.1391	19.61684
375.3061	25.23126
375.473	28.2655
375.64	21.768
375.8069	21.59173
375.9739	20.77556
376.1409	19.49435
376.3078	19.80766
376.4748	20.17881
376.6417	28.28636
376.8087	29.59675
376.9756	19.10359
377.1425	24.06113
377.3094	24.67822
377.4763	23.07355
377.6432	24.40858
377.8102	26.52497
377.9771	28.80568
378.144	28.68917
378.3109	29.07521
378.4777	24.9515
378.6446	23.04911
378.8115	18.44133
378.9784	21.90167
379.1452	23.9995
379.3121	25.62628
379.4789	23.85702
379.6458	19.48313
379.8127	15.27314
379.9795	19.67509
380.1463	26.42556
380.3131	22.41309
380.48	25.86016
380.6468	24.51098
380.8136	24.27491
380.9804	29.90729
381.1472	28.61499
381.314	20.25908
381.4808	25.41049
381.6476	25.39436
381.8144	19.05962
381.9812	22.46284
382.148	19.99679
382.3147	20.88461
382.4815	16.60763
382.6483	17.94947
382.815	17.88326
382.9818	19.89616
383.1485	19.96669
383.3153	15.53653
383.482	19.58813
383.6487	17.5257
383.8155	19.24801
383.9822	18.64098
384.1489	22.13449
384.3156	24.69252
384.4823	28.56665
384.649	29.96977
384.8157	27.85486
384.9824	27.98036
385.1491	20.80814
385.3158	25.71342
385.4825	28.9068
385.6491	24.79499
385.8158	26.25515
385.9825	25.22386
386.1491	23.39681
386.3157	26.5559
386.4824	29.91114
386.649	28.64514
386.8157	28.46792
386.9823	25.97719
387.1489	22.06688
387.3156	27.23164
387.4821	29.42707
387.6488	29.25358
387.8154	25.08633
387.982	26.88021
388.1486	23.95952
388.3152	24.20573
388.4818	21.37027
388.6483	23.98322
388.8149	24.31209
388.9815	23.48226
389.148	28.62601
389.3146	28.20941
389.4811	25.71433
389.6477	29.34606
389.8142	29.70396
389.9808	29.65895
390.1473	31.50721
390.3138	30.76685
390.4804	30.95621
390.6469	28.34216
390.8134	29.45788
390.9799	31.32976
391.1464	31.08799
391.3129	27.79117
391.4794	34.11367
391.6459	33.78251
391.8124	31.94112
391.9789	29.74294
392.1453	30.39685
392.3118	33.59587
392.4782	27.23339
392.6447	24.4143
392.8112	22.58781
392.9776	22.14089
393.144	22.3955
393.3105	16.68059
393.4769	14.56929
393.6433	19.807
393.8098	19.79905
393.9762	24.46313
394.1426	24.13221
394.309	27.59455
394.4754	30.46715
394.6418	34.77619
394.8082	31.84213
394.9746	32.18898
395.141	33.33573
395.3073	36.60023
395.4737	33.79391
395.64	32.65913
395.8064	35.82083
395.9728	39.85364
396.1391	34.18652
396.3055	28.80594
396.4718	21.66579
396.6381	26.80953
396.8045	24.41006
396.9708	19.6831
397.1371	21.18703
397.3034	31.75335
397.4697	31.38809
397.636	33.34064
397.8023	38.17425
397.9686	42.34449
398.1349	44.12498
398.3012	40.05888
398.4675	45.4648
398.6337	44.88148
398.8	45.96296
398.9662	46.56725
399.1325	45.73318
399.2988	49.32277
399.465	46.28576
399.6313	45.88629
399.7975	47.55433
399.9637	45.81609
400.1299	47.39405
400.2961	46.35515
400.4624	42.89131
400.6286	45.93097
400.7948	49.80243
400.961	50.09145
401.1272	54.48481
401.2934	52.42941
401.4595	50.6323
401.6257	44.06629
401.7919	47.93753
401.9581	46.41861
402.1242	45.59612
402.2904	47.11948
402.4565	48.17398
402.6227	50.10636
402.7888	49.0299
402.955	48.73532
403.1211	46.85056
403.2872	44.77112
403.4533	41.99337
403.6194	53.16002
403.7856	51.85807
403.9517	52.33849
404.1177	49.72705
404.2838	48.72173
404.4499	45.13759
404.616	43.29527
404.7821	41.4835
404.9482	51.04899
405.1142	52.45789
405.2803	49.35678
405.4464	46.19413
405.6124	43.2107
405.7784	51.20087
405.9445	48.10203
406.1105	48.25504
406.2766	52.54308
406.4426	45.74308
406.6086	50.07368
406.7746	51.42242
406.9406	55.43893
407.1066	54.27489
407.2726	53.14475
407.4386	52.71779
407.6046	52.13573
407.7706	51.65468
407.9366	56.16612
408.1025	54.21087
408.2685	48.81822
408.4344	56.28436
408.6004	57.92858
408.7664	56.66128
408.9323	63.10457
409.0983	65.04748
409.2642	63.61563
409.4301	63.89671
409.596	56.78114
409.762	55.71353
409.9279	51.63471
410.0938	52.31654
410.2597	46.50655
410.4256	50.66483
410.5915	53.49061
410.7574	59.68138
410.9232	60.92616
411.0891	61.52368
411.255	58.5847
411.4209	70.844
411.5867	67.68356
411.7526	64.84924
411.9184	64.33761
412.0843	63.70218
412.2501	67.77699
412.4159	67.66525
412.5818	63.97444
412.7476	57.90393
412.9134	64.93465
413.0792	63.9474
413.245	57.6034
413.4108	59.83009
413.5766	64.95661
413.7424	63.84715
413.9082	68.82492
414.074	66.51388
414.2397	62.73692
414.4055	61.35254
414.5713	57.96175
414.737	66.57465
414.9028	66.58856
415.0685	56.97764
415.2343	59.17428
415.4	57.24038
415.5658	59.64165
415.7315	57.63621
415.8972	66.27426
416.0629	68.15369
416.2286	73.3288
416.3943	70.84602
416.56	68.68347
416.7257	70.73289
416.8914	69.32935
417.0571	66.14488
417.2228	61.45884
417.3884	59.06666
417.5541	61.79481
417.7198	62.46487
417.8854	66.82751
418.0511	62.00856
418.2167	61.76234
418.3824	60.98667
418.548	58.87365
418.7136	59.87329
418.8792	60.12337
419.0449	56.15282
419.2105	63.10644
419.3761	68.89608
419.5417	69.70354
419.7073	71.8241
419.8729	63.88073
420.0385	62.40895
420.204	67.80141
420.3696	66.84686
420.5352	71.53482
420.7007	71.6237
420.8663	72.88564
421.0319	76.8049
421.1974	74.23497
421.3629	75.7577
421.5285	71.48133
421.694	70.00837
421.8595	77.66707
422.0251	77.83245
422.1906	72.75017
422.3561	66.65042
422.5216	61.02234
422.6871	64.16338
422.8526	67.3084
423.0181	74.75782
423.1835	75.23026
423.349	74.0938
423.5145	75.34493
423.68	71.04848
423.8454	71.49374
424.0109	78.68745
424.1763	77.30701
424.3418	77.01804
424.5072	79.85904
424.6726	77.97736
424.838	74.23799
425.0035	74.543
425.1689	70.80088
425.3343	73.86205
425.4997	76.71586
425.6651	75.09278
425.8305	80.57458
425.9959	69.25227
426.1613	66.61585
426.3267	68.48679
426.492	78.84613
426.6574	82.43285
426.8228	79.08784
426.9881	72.17708
427.1534	60.52125
427.3188	59.19725
427.4841	71.17501
427.6495	77.06005
427.8148	76.45324
427.9801	76.47861
428.1454	78.55686
428.3107	77.70639
428.476	75.56187
428.6414	69.69846
428.8066	73.55128
428.9719	70.42352
429.1372	70.99928
429.3025	71.1838
429.4678	72.48802
429.633	72.4108
429.7983	72.48321
429.9636	63.23386
430.1288	60.2437
430.294	57.32072
430.4593	59.75671
430.6245	57.13958
430.7897	58.41913
430.955	58.17595
431.1202	59.66828
431.2854	63.41843
431.4506	75.65775
431.6158	79.36727
431.781	84.797
431.9462	89.53727
432.1114	93.54158
432.2766	79.45065
432.4417	71.51103
432.6069	66.26075
432.772	74.51439
432.9372	82.59
433.1024	87.6158
433.2675	91.75423
433.4326	91.07943
433.5977	89.24718
433.7629	80.16561
433.928	74.96506
434.0931	67.28368
434.2582	71.30906
434.4233	80.76402
434.5884	83.54642
434.7535	92.18882
434.9186	98.39925
435.0837	90.51465
435.2488	85.73937
435.4138	83.61098
435.5789	87.62966
435.744	86.26322
435.909	90.88345
436.0741	92.97923
436.2391	100.7776
436.4042	100.1921
436.5692	93.191
436.7342	94.74308
436.8992	94.61845
437.0643	97.09933
437.2293	91.10636
437.3943	91.29668
437.5593	88.93103
437.7243	90.59643
437.8893	94.8727
438.0542	95.68803
438.2192	88.66512
438.3842	78.84496
438.5491	75.41495
438.7141	86.08304
438.8791	93.08328
439.044	98.25991
439.209	94.79213
439.3739	97.53149
439.5388	97.65955
439.7037	101.7889
439.8687	96.67709
440.0336	96.85097
440.1985	97.16245
440.3634	91.26901
440.5283	92.33097
440.6932	96.00851
440.8581	104.0157
441.0229	104.0644
441.1878	105.1916
441.3527	108.5417
441.5175	103.5022
441.6824	100.9642
441.8472	102.9545
442.0121	109.1167
442.1769	104.7918
442.3418	103.0082
442.5066	101.5049
442.6714	112.037
442.8362	110.7051
443.001	112.4942
443.1659	109.4582
443.3307	110.1556
443.4955	107.4757
443.6602	105.2747
443.825	107.3622
443.9898	111.3725
444.1546	108.1318
444.3193	104.7691
444.4841	108.1005
444.6488	107.3434
444.8136	108.9093
444.9783	112.1497
445.1431	111.0043
445.3078	105.7068
445.4725	105.0017
445.6372	101.8249
445.802	104.4577
445.9667	101.2741
446.1314	104.4231
446.2961	107.3448
446.4608	103.306
446.6255	110.1291
446.7901	107.3654
446.9548	111.4532
447.1195	113.5
447.2841	115.3574
447.4488	120.7532
447.6134	120.3192
447.7781	114.4175
447.9427	121.7902
448.1074	121.4656
448.272	113.4965
448.4366	113.2165
448.6012	125.1202
448.7658	116.6022
448.9305	117.1161
449.095	116.0748
449.2596	116.0959
449.4242	120.809
449.5888	117.9726
449.7534	117.4872
449.9179	122.9918
450.0825	125.6381
450.2471	127.1181
450.4116	128.2695
450.5762	134.9141
450.7407	132.8882
450.9052	127.9098
451.0698	131.7143
451.2343	130.2675
451.3988	122.9641
451.5633	122.1039
451.7278	123.0182
451.8923	129.4213
452.0568	128.0134
452.2213	124.5349
452.3858	120.4088
452.5503	110.6531
452.7148	119.1665
452.8792	115.1946
453.0437	120.4311
453.2081	118.7488
453.3726	118.4261
453.537	116.9939
453.7015	121.3818
453.8659	127.5183
454.0303	130.7606
454.1947	128.3146
454.3592	127.3701
454.5236	130.7021
454.688	121.9622
454.8524	131.4803
455.0168	127.0453
455.1811	117.5386
455.3455	128.3933
455.5099	124.4049
455.6743	128.4249
455.8386	130.6378
456.003	129.0853
456.1673	132.8326
456.3317	128.698
456.496	128.9007
456.6603	130.5614
456.8246	130.1324
456.989	136.0007
457.1533	136.9409
457.3176	128.7482
457.4819	131.6651
457.6462	137.1929
457.8105	135.3803
457.9748	130.8772
458.1391	122.5867
458.3033	130.9809
458.4676	125.3982
458.6319	130.7407
458.7961	135.1554
458.9604	135.951
459.1246	129.9838
459.2888	129.0891
459.4531	127.2927
459.6173	131.3368
459.7815	132.1045
459.9457	118.5917
460.11	132.5478
460.2741	130.4292
460.4384	127.2978
460.6025	130.5241
460.7667	133.7656
460.9309	136.0233
461.0951	136.7373
461.2592	134.2786
461.4234	128.4355
461.5876	140.3252
461.7517	131.293
461.9159	133.6438
462.08	139.0377
462.2441	133.4837
462.4082	136.3792
462.5724	138.1104
462.7365	138.959
462.9006	138.4132
463.0647	146.2482
463.2288	142.8709
463.3929	132.1072
463.557	135.5669
463.721	135.3533
463.8851	135.35
464.0492	135.0802
464.2132	134.5499
464.3773	140.7554
464.5414	135.2693
464.7054	124.7712
464.8694	132.5872
465.0334	132.757
465.1975	135.1403
465.3615	139.29
465.5255	139.1395
465.6895	136.4146
465.8535	141.6375
466.0175	141.3467
466.1815	144.5419
466.3455	140.7056
466.5095	132.0032
466.6734	129.9375
466.8374	134.4891
467.0014	136.029
467.1653	137.9398
467.3293	143.82
467.4932	146.4011
467.6571	140.4856
467.8211	139.1386
467.985	142.3164
468.1489	140.8921
468.3128	144.7174
468.4767	142.0487
468.6406	141.8538
468.8045	144.1509
468.9684	143.8143
469.1323	150.6349
469.2962	150.4969
469.46	148.6859
469.6239	144.2421
469.7878	142.2899
469.9516	140.4418
470.1154	131.3864
470.2793	136.8928
470.4431	135.3306
470.607	136.481
470.7708	135.7416
470.9346	131.1092
471.0984	142.0815
471.2622	137.9691
471.426	141.1414
471.5898	147.8338
471.7536	146.836
471.9174	151.3939
472.0811	153.6527
472.2449	151.2883
472.4087	154.7722
472.5724	147.3907
472.7362	145.0335
472.8999	145.2348
473.0637	145.0559
473.2274	141.4047
473.3911	144.7061
473.5548	144.4147
473.7185	144.1012
473.8822	144.0297
474.0459	148.0176
474.2096	151.0774
474.3733	152.838
474.537	146.7826
474.7007	145.2688
474.8643	152.3421
475.028	154.2666
475.1917	152.4707
475.3553	151.7932
475.519	147.6785
475.6826	144.4438
475.8463	144.4035
476.0099	152.7296
476.1735	149.954
476.3371	144.0766
476.5007	143.4454
476.6643	142.1583
476.8279	141.1712
476.9915	144.5745
477.1551	142.1916
477.3187	147.7314
477.4823	147.3791
477.6458	152.7229
477.8094	151.3262
477.9729	152.0401
478.1365	145.7461
478.3	147.1862
478.4636	144.4093
478.6271	148.3949
478.7906	141.3667
478.9541	142.8195
479.1176	149.6113
479.2812	151.4132
479.4447	148.9013
479.6082	151.131
479.7716	149.5639
479.9351	151.4715
480.0986	146.3268
480.2621	155.3162
480.4255	158.5563
480.589	159.5829
480.7524	149.3135
480.9159	148.8689
481.0793	149.6132
481.2428	149.1039
481.4062	146.8645
481.5696	151.4262
481.733	151.4166
481.8964	154.7025
482.0598	161.7089
482.2232	154.3385
482.3866	146.3995
482.55	143.8761
482.7134	148.2571
482.8768	153.5947
483.0401	149.9395
483.2035	149.0855
483.3668	149.2938
483.5302	156.4689
483.6935	155.4993
483.8568	151.637
484.0202	151.0571
484.1835	149.051
484.3468	153.0456
484.5101	155.7469
484.6734	159.1015
484.8367	158.1589
485	151.8094
485.1633	153.2916
485.3266	151.3716
485.4899	145.1875
485.6531	139.229
485.8164	134.9362
485.9796	126.8373
486.1429	115.2612
486.3061	116.1042
486.4694	120.1359
486.6326	134.8551
486.7958	140.3457
486.959	141.6449
487.1223	144.3822
487.2855	141.9808
487.4486	147.9482
487.6118	143.4988
487.775	149.0955
487.9382	149.4008
488.1014	159.3126
488.2646	155.9289
488.4277	152.4938
488.5909	149.8091
488.754	152.2922
488.9171	150.6945
489.0803	145.3916
489.2434	149.5597
489.4066	151.863
489.5697	156.0302
489.7328	158.2012
489.8959	165.2036
490.059	165.682
490.2221	163.5672
490.3852	157.869
490.5482	160.7834
490.7113	162.1965
490.8744	155.5166
491.0374	150.3243
491.2005	154.1773
491.3636	157.8132
491.5266	162.0919
491.6896	159.8702
491.8527	146.3198
492.0157	142.7625
492.1787	142.8211
492.3417	153.9389
492.5047	157.3536
492.6677	165.9748
492.8307	162.9945
492.9937	157.1109
493.1567	162.9801
493.3196	152.3678
493.4826	159.1056
493.6456	157.9148
493.8085	155.0618
493.9715	155.5576
494.1344	158.8565
494.2974	162.2475
494.4603	164.5923
494.6232	161.0851
494.7861	159.5593
494.949	162.8769
495.1119	169.5127
495.2748	169.3327
495.4377	162.5949
495.6006	154.7527
495.7635	149.2206
495.9264	153.8788
496.0892	163.7524
496.2521	167.5431
496.4149	172.5934
496.5778	163.9977
496.7407	166.4316
496.9035	167.1898
497.0663	162.1821
497.2291	166.8006
497.3919	170.0079
497.5547	169.6875
497.7176	168.3986
497.8804	163.567
498.0432	163.4353
498.2059	154.7848
498.3687	155.185
498.5315	153.7892
498.6942	164.4421
498.857	167.4913
499.0198	169.9782
499.1825	162.1748
499.3452	166.8544
499.508	163.1328
499.6707	169.0918
499.8334	165.8908
499.9962	159.0249
500.1589	157.41
500.3216	164.4544
500.4843	161.6444
500.6469	159.5299
500.8096	153.6557
500.9723	156.6791
501.135	159.4516
501.2976	160.6324
501.4603	155.6535
501.623	163.5887
501.7856	160.5299
501.9482	163.3789
502.1109	162.357
502.2735	165.4904
502.4361	157.1772
502.5987	167.1287
502.7614	166.7307
502.924	162.2242
503.0865	166.7472
503.2491	164.4674
503.4117	171.6106
503.5743	167.5072
503.7368	159.2502
503.8994	157.7107
504.062	157.7654
504.2245	157.304
504.3871	163.8664
504.5496	172.6952
504.7121	172.8225
504.8746	172.1022
505.0372	165.4907
505.1997	164.0986
505.3622	168.1568
505.5247	173.7471
505.6872	180.6405
505.8497	178.3196
506.0121	177.6239
506.1746	185.5442
506.3371	181.101
506.4995	183.4607
506.662	177.4977
506.8244	174.981
506.9869	174.1725
507.1493	173.1528
507.3117	178.0062
507.4742	181.2161
507.6366	170.4352
507.799	171.9224
507.9614	170.0284
508.1238	162.3066
508.2862	168.8168
508.4485	168.9239
508.6109	175.2214
508.7733	175.0075
508.9357	179.6835
509.098	179.6844
509.2604	175.8754
509.4227	180.31
509.5851	183.771
509.7474	176.4125
509.9097	170.2763
510.072	167.4738
510.2343	177.0637
510.3966	177.4098
510.5589	179.9875
510.7212	176.4872
510.8835	172.7858
511.0458	170.3192
511.2081	170.8064
511.3703	175.8628
511.5326	183.256
511.6949	181.4093
511.8571	178.7215
512.0193	176.3427
512.1816	176.6271
512.3438	168.41
512.506	167.8521
512.6682	169.9981
512.8304	162.4923
512.9926	165.2475
513.1548	166.8026
513.317	172.5753
513.4792	175.1781
513.6414	174.5586
513.8035	170.4928
513.9657	161.6411
514.1279	167.0496
514.29	166.5051
514.4521	162.3329
514.6143	164.8503
514.7764	167.2092
514.9385	165.8141
515.1006	166.559
515.2628	175.1247
515.4249	174.0797
515.587	165.7545
515.7491	172.8642
515.9111	174.6281
516.0732	172.3938
516.2353	170.8741
