SPECTRUM DATA FILE
SpectrumCount:	1
PixelCount:	3648
UserName:	ToughBook User
SampleName:	
LightSource:	
Comments:	
DeviceName:	Qwave
DeviceManufacturer:	Broadcom
DeviceSerialNo:	11311

Name:	last spectrum
Date:	2024-05-02T15:01:46.3645208+02:00
ExposureTime:	0.02
TemporalAvg:	1
IntensityUnit:	normalizedCounts
CCDLoadLevel:	0.5111907
Temperature:	29.65942
DiagramColor:	200
ProcessingSteps:	335

Wavelength [nm]	Intensity1
334.421	129.9744
334.5891	137.299
334.7573	134.1342
334.9254	136.2683
335.0935	139.1243
335.2616	139.9163
335.4297	144.923
335.5978	147.023
335.7659	122.1245
335.934	111.6132
336.1021	109.7462
336.2701	109.5689
336.4382	116.2829
336.6063	124.9936
336.7744	113.6879
336.9424	108.4986
337.1105	101.6206
337.2785	108.3878
337.4466	123.8353
337.6146	133.1682
337.7827	126.2033
337.9507	123.9251
338.1187	127.7109
338.2867	134.1275
338.4548	135.1573
338.6228	147.9175
338.7908	143.9341
338.9588	142.6532
339.1268	141.4356
339.2948	129.8256
339.4628	129.847
339.6308	149.7634
339.7988	157.65
339.9667	165.0093
340.1347	161.5497
340.3027	155.0817
340.4707	143.8933
340.6386	147.7312
340.8066	147.8257
340.9745	151.3015
341.1425	143.8048
341.3104	147.0584
341.4784	145.4154
341.6463	147.6295
341.8142	166.6244
341.9821	173.529
342.1501	167.051
342.318	163.365
342.4859	160.2245
342.6538	167.0561
342.8217	171.6308
342.9896	169.9394
343.1575	177.2688
343.3254	168.6532
343.4933	157.9619
343.6612	159.1092
343.829	144.9819
343.9969	128.1732
344.1648	118.9698
344.3326	123.8029
344.5005	131.9322
344.6683	146.879
344.8362	160.1974
345.004	171.4553
345.1719	163.4536
345.3397	165.9566
345.5075	171.2398
345.6754	163.8154
345.8432	155.9384
346.011	148.9053
346.1788	151.3862
346.3466	156.1891
346.5144	174.9919
346.6822	172.6763
346.85	170.1356
347.0178	183.3933
347.1856	170.8498
347.3534	163.9585
347.5211	150.6466
347.6889	151.8738
347.8567	159.6741
348.0244	170.1927
348.1922	173.2794
348.3599	173.2725
348.5277	168.1292
348.6954	170.66
348.8632	173.5554
349.0309	157.5205
349.1986	159.1777
349.3663	161.7565
349.5341	162.7269
349.7018	173.8111
349.8695	184.6343
350.0372	206.7383
350.2049	215.2056
350.3726	216.9136
350.5403	216.707
350.7079	206.7188
350.8756	205.2737
351.0433	192.1251
351.211	188.8788
351.3786	184.9712
351.5463	187.993
351.714	204.5386
351.8816	212.8578
352.0493	203.9593
352.2169	184.6239
352.3846	171.9963
352.5522	174.335
352.7198	181.8755
352.8875	203.3102
353.0551	219.3343
353.2227	213.5995
353.3903	217.6574
353.5579	229.6102
353.7255	226.5114
353.8931	229.2479
354.0607	228.4191
354.2283	228.2192
354.3958	240.577
354.5634	242.2213
354.731	233.8789
354.8986	235.1832
355.0661	239.4273
355.2337	227.2391
355.4012	220.1906
355.5688	220.2862
355.7363	221.4055
355.9039	221.4434
356.0714	227.1486
356.239	212.1191
356.4065	208.3599
356.574	184.7479
356.7415	177.1022
356.909	165.5681
357.0765	173.354
357.244	181.7762
357.4115	193.1029
357.579	202.2966
357.7465	201.9028
357.914	175.7539
358.0815	155.9204
358.249	148.0499
358.4164	147.7459
358.5839	154.1266
358.7513	165.5925
358.9188	181.8219
359.0862	219.257
359.2537	237.7359
359.4211	253.6674
359.5886	266.0251
359.756	271.2744
359.9234	274.6018
360.0909	264.2383
360.2583	243.217
360.4257	233.4798
360.5931	215.8755
360.7605	213.091
360.9279	209.2561
361.0953	216.409
361.2627	231.8658
361.4301	239.1015
361.5974	232.7546
361.7648	217.4458
361.9322	208.9125
362.0995	217.7981
362.2669	240.0494
362.4343	276.5621
362.6016	287.9245
362.769	300.0391
362.9363	284.1349
363.1036	251.3522
363.271	229.6735
363.4383	242.5295
363.6056	262.7236
363.7729	277.2976
363.9402	285.9526
364.1075	292.1542
364.2748	279.2645
364.4421	261.2943
364.6094	251.3593
364.7767	245.9467
364.944	259.4749
365.1113	280.844
365.2786	302.8136
365.4458	322.0925
365.6131	333.7556
365.7803	337.0918
365.9476	346.0687
366.1148	344.2068
366.2821	331.885
366.4493	321.091
366.6166	321.0125
366.7838	325.8045
366.951	327.124
367.1182	325.5038
367.2855	336.9455
367.4527	340.5107
367.6199	329.676
367.7871	310.924
367.9543	293.9355
368.1215	292.938
368.2886	309.8531
368.4558	316.3229
368.623	304.5655
368.7902	308.8969
368.9573	325.6249
369.1245	346.6694
369.2917	355.8329
369.4588	365.3114
369.6259	366.1749
369.7931	371.5534
369.9602	385.8947
370.1274	390.4381
370.2945	365.7281
370.4616	330.2083
370.6287	300.3257
370.7958	300.1396
370.963	321.6963
371.1301	368.7449
371.2971	397.8645
371.4643	417.9416
371.6313	403.9112
371.7984	360.7763
371.9655	311.8237
372.1326	282.8935
372.2997	300.2457
372.4667	349.3245
372.6338	368.4868
372.8008	365.5283
372.9679	351.3336
373.1349	331.961
373.3019	294.1529
373.469	256.3519
373.636	249.6607
373.803	272.633
373.9701	337.6435
374.1371	359.0931
374.3041	337.4267
374.4711	299.6108
374.6381	270.6003
374.8051	263.029
374.9721	274.9956
375.1391	314.7291
375.3061	374.4064
375.473	413.8674
375.64	399.982
375.8069	369.4697
375.9739	347.0563
376.1409	356.0417
376.3078	360.6591
376.4748	363.7377
376.6417	365.0025
376.8087	373.5468
376.9756	382.5898
377.1425	401.1966
377.3094	425.876
377.4763	450.9851
377.6432	474.3915
377.8102	482.5285
377.9771	488.1168
378.144	509.2791
378.3109	497.196
378.4777	483.3431
378.6446	451.1962
378.8115	420.0371
378.9784	403.7113
379.1452	403.6014
379.3121	392.8058
379.4789	375.0894
379.6458	359.8438
379.8127	350.4919
379.9795	378.862
380.1463	419.3897
380.3131	462.2001
380.48	484.1906
380.6468	483.1715
380.8136	482.6572
380.9804	485.3108
381.1472	487.411
381.314	441.9643
381.4808	399.1353
381.6476	373.9891
381.8144	371.3922
381.9812	360.0039
382.148	347.4896
382.3147	338.8284
382.4815	322.5919
382.6483	302.046
382.815	286.2965
382.9818	280.8243
383.1485	286.2704
383.3153	278.359
383.482	275.5978
383.6487	282.0509
383.8155	286.5468
383.9822	296.8169
384.1489	343.2511
384.3156	393.9842
384.4823	434.7585
384.649	458.0552
384.8157	468.9651
384.9824	455.7082
385.1491	453.4212
385.3158	447.1313
385.4825	425.8539
385.6491	400.6639
385.8158	374.8072
385.9825	360.2442
386.1491	386.041
386.3157	444.8505
386.4824	473.1887
386.649	472.8145
386.8157	449.4513
386.9823	413.9213
387.1489	388.5298
387.3156	413.4169
387.4821	454.6252
387.6488	467.4416
387.8154	441.1872
387.982	424.0913
388.1486	422.0743
388.3152	428.1236
388.4818	423.9217
388.6483	415.748
388.8149	410.2653
388.9815	431.4874
389.148	489.8735
389.3146	527.1501
389.4811	547.0327
389.6477	555.4631
389.8142	561.9161
389.9808	559.2538
390.1473	544.3035
390.3138	527.0757
390.4804	516.3023
390.6469	526.7415
390.8134	567.1316
390.9799	597.4143
391.1464	629.6485
391.3129	635.0436
391.4794	627.5253
391.6459	610.8654
391.8124	596.4299
391.9789	566.4787
392.1453	522.5309
392.3118	514.5389
392.4782	506.9333
392.6447	461.3499
392.8112	385.7482
392.9776	307.7547
393.144	234.3126
393.3105	196.9998
393.4769	199.175
393.6433	245.6001
393.8098	319.256
393.9762	402.9689
394.1426	448.4433
394.309	469.0532
394.4754	512.5377
394.6418	561.8505
394.8082	612.7004
394.9746	648.9097
395.141	662.9866
395.3073	672.9387
395.4737	667.5295
395.64	654.572
395.8064	661.0529
395.9728	618.8026
396.1391	545.965
396.3055	468.6164
396.4718	403.4141
396.6381	323.6935
396.8045	260.097
396.9708	250.8512
397.1371	303.4925
397.3034	395.8954
397.4697	501.9062
397.636	588.2966
397.8023	673.8135
397.9686	736.2076
398.1349	767.4449
398.3012	766.479
398.4675	767.8932
398.6337	784.4749
398.8	824.3305
398.9662	839.294
399.1325	855.9487
399.2988	853.7325
399.465	857.199
399.6313	846.3564
399.7975	843.1391
399.9637	869.7432
400.1299	894.7554
400.2961	899.51
400.4624	869.2012
400.6286	841.4637
400.7948	858.6909
400.961	902.3167
401.1272	927.9814
401.2934	950.9015
401.4595	963.3169
401.6257	949.5153
401.7919	940.3612
401.9581	954.4036
402.1242	974.4656
402.2904	970.7133
402.4565	964.7547
402.6227	964.4054
402.7888	970.1154
402.955	955.6744
403.1211	900.1172
403.2872	852.5781
403.4533	861.4377
403.6194	933.7844
403.7856	1005.91
403.9517	1027.429
404.1177	1012.503
404.2838	958.5
404.4499	882.5076
404.616	838.7011
404.7821	878.3212
404.9482	972.8102
405.1142	1030.917
405.2803	1019.572
405.4464	988.1914
405.6124	953.4466
405.7784	945.3595
405.9445	950.971
406.1105	950.7593
406.2766	933.8632
406.4426	898.1714
406.6086	911.4376
406.7746	975.3945
406.9406	1014.909
407.1066	1006.467
407.2726	1000.14
407.4386	984.6841
407.6046	973.5161
407.7706	954.0442
407.9366	980.3603
408.1025	1050.407
408.2685	1088.897
408.4344	1082.74
408.6004	1092.236
408.7664	1124.49
408.9323	1155.984
409.0983	1172.822
409.2642	1140.554
409.4301	1108.189
409.596	1068.096
409.762	1016.423
409.9279	958.8193
410.0938	893.8467
410.2597	859.667
410.4256	920.5959
410.5915	1007.586
410.7574	1073.663
410.9232	1101.32
411.0891	1097.425
411.255	1122.337
411.4209	1165.048
411.5867	1190.551
411.7526	1196.877
411.9184	1176.658
412.0843	1163.835
412.2501	1154.001
412.4159	1160.786
412.5818	1170.345
412.7476	1153.541
412.9134	1137.228
413.0792	1113.123
413.245	1076.892
413.4108	1075.602
413.5766	1141.201
413.7424	1208.393
413.9082	1259.582
414.074	1233.031
414.2397	1177.479
414.4055	1126.268
414.5713	1122.74
414.737	1177.312
414.9028	1200.533
415.0685	1204.046
415.2343	1188.711
415.4	1154.512
415.5658	1128.091
415.7315	1126.742
415.8972	1181.403
416.0629	1233.856
416.2286	1261.642
416.3943	1273.441
416.56	1272.867
416.7257	1238.957
416.8914	1224.655
417.0571	1205.009
417.2228	1152.751
417.3884	1118.636
417.5541	1125.784
417.7198	1164.691
417.8854	1204.053
418.0511	1211.718
418.2167	1201.591
418.3824	1216.775
418.548	1204.717
418.7136	1185.319
418.8792	1192.182
419.0449	1222.092
419.2105	1287.629
419.3761	1317.352
419.5417	1267.93
419.7073	1206.536
419.8729	1160.201
420.0385	1141.383
420.204	1166.593
420.3696	1231.895
420.5352	1285.283
420.7007	1352.019
420.8663	1377.108
421.0319	1396.97
421.1974	1396.822
421.3629	1385.576
421.5285	1351.295
421.694	1317.369
421.8595	1341.819
422.0251	1392.67
422.1906	1398.163
422.3561	1322.722
422.5216	1176.554
422.6871	1075.713
422.8526	1131.624
423.0181	1278.683
423.1835	1377.14
423.349	1366.097
423.5145	1295.23
423.68	1254.444
423.8454	1258.652
424.0109	1289.284
424.1763	1347.372
424.3418	1369.218
424.5072	1380.973
424.6726	1356.608
424.838	1299.596
425.0035	1243.092
425.1689	1277.153
425.3343	1309.811
425.4997	1317.76
425.6651	1337.961
425.8305	1324.53
425.9959	1278.101
426.1613	1244.83
426.3267	1316.412
426.492	1417.467
426.6574	1426.284
426.8228	1379.577
426.9881	1266.681
427.1534	1167.213
427.3188	1136.451
427.4841	1180.16
427.6495	1296.926
427.8148	1355.854
427.9801	1364.892
428.1454	1338.183
428.3107	1319.748
428.476	1305.09
428.6414	1288.967
428.8066	1229.367
428.9719	1182.067
429.1372	1203.887
429.3025	1241.007
429.4678	1265.42
429.633	1225.284
429.7983	1100.172
429.9636	997.2981
430.1288	940.3006
430.294	935.8073
430.4593	965.2397
430.6245	944.2562
430.7897	906.5375
430.955	906.6332
431.1202	944.1962
431.2854	1073.371
431.4506	1235.924
431.6158	1424.673
431.781	1560.335
431.9462	1611.229
432.1114	1551.6
432.2766	1422.862
432.4417	1254.518
432.6069	1187.519
432.772	1296.909
432.9372	1456.787
433.1024	1573.461
433.2675	1579.618
433.4326	1578.636
433.5977	1518.984
433.7629	1366.37
433.928	1218.707
434.0931	1133.407
434.2582	1202.734
434.4233	1341.662
434.5884	1475.871
434.7535	1550.745
434.9186	1596.971
435.0837	1540.3
435.2488	1463.874
435.4138	1461.361
435.5789	1527.603
435.744	1586.272
435.909	1594.245
436.0741	1629.065
436.2391	1659.096
436.4042	1713.562
436.5692	1710.609
436.7342	1673.762
436.8992	1636.879
437.0643	1606.089
437.2293	1590.043
437.3943	1547.846
437.5593	1520.658
437.7243	1556.644
437.8893	1618.414
438.0542	1599.525
438.2192	1465.891
438.3842	1314.755
438.5491	1282.393
438.7141	1386.16
438.8791	1501.323
439.044	1536.452
439.209	1548.185
439.3739	1585.731
439.5388	1630.731
439.7037	1650.305
439.8687	1669.905
440.0336	1658.112
440.1985	1606.464
440.3634	1527.824
440.5283	1491.367
440.6932	1519.56
440.8581	1600.926
441.0229	1707.024
441.1878	1766.771
441.3527	1761.989
441.5175	1689.073
441.6824	1656.999
441.8472	1718.922
442.0121	1805.788
442.1769	1798.321
442.3418	1778.698
442.5066	1761.538
442.6714	1779.744
442.8362	1799.785
443.001	1785.101
443.1659	1793.871
443.3307	1753.067
443.4955	1715.575
443.6602	1718.84
443.825	1799.624
443.9898	1860.469
444.1546	1809.775
444.3193	1758.61
444.4841	1791.743
444.6488	1838.552
444.8136	1885.28
444.9783	1874.913
445.1431	1861.087
445.3078	1820.174
445.4725	1747.294
445.6372	1677.95
445.802	1646.436
445.9667	1665.374
446.1314	1701.417
446.2961	1727.896
446.4608	1777.682
446.6255	1837.989
446.7901	1832.878
446.9548	1845.65
447.1195	1879.823
447.2841	1919.529
447.4488	1989.866
447.6134	2016.694
447.7781	2009.352
447.9427	1947.388
448.1074	1863.953
448.272	1833.237
448.4366	1908.239
448.6012	2012.47
448.7658	2030.274
448.9305	1952.476
449.095	1926.423
449.2596	1938.822
449.4242	1956.073
449.5888	1970.39
449.7534	1997.061
449.9179	2025.074
450.0825	2063.329
450.2471	2076.473
450.4116	2130.663
450.5762	2169.383
450.7407	2178.864
450.9052	2167.671
451.0698	2157.162
451.2343	2127.245
451.3988	2098.008
451.5633	2067.236
451.7278	2063.465
451.8923	2083.742
452.0568	2111.052
452.2213	2096.71
452.3858	2073.251
452.5503	1987.501
452.7148	1917.295
452.8792	1870.642
453.0437	1867.947
453.2081	1901.046
453.3726	1895.274
453.537	1913.579
453.7015	1992.154
453.8659	2082.955
454.0303	2120.946
454.1947	2087.947
454.3592	2081.439
454.5236	2084.456
454.688	2057.559
454.8524	1988.672
455.0168	1984.36
455.1811	1968.175
455.3455	1968.896
455.5099	1994.607
455.6743	2027.898
455.8386	2072.182
456.003	2122.614
456.1673	2165.376
456.3317	2144.773
456.496	2083.321
456.6603	2076.539
456.8246	2105.814
456.989	2123.803
457.1533	2117.102
457.3176	2115.932
457.4819	2131.359
457.6462	2145.425
457.8105	2116.582
457.9748	2070.236
458.1391	2018.074
458.3033	2004.658
458.4676	1995.985
458.6319	2007.503
458.7961	2039.609
458.9604	2106.374
459.1246	2116.893
459.2888	2072.265
459.4531	2039.814
459.6173	2033.995
459.7815	2029.81
459.9457	2062.175
460.11	2046.523
460.2741	2058.701
460.4384	2071.106
460.6025	2097.867
460.7667	2132.746
460.9309	2175.188
461.0951	2169.004
461.2592	2150.184
461.4234	2143.947
461.5876	2127.872
461.7517	2150.292
461.9159	2161.971
462.08	2163.921
462.2441	2177.771
462.4082	2197.487
462.5724	2181.76
462.7365	2195.107
462.9006	2185.177
463.0647	2196.521
463.2288	2190.739
463.3929	2175.421
463.557	2167.687
463.721	2129.824
463.8851	2116.132
464.0492	2119.207
464.2132	2155.616
464.3773	2174.002
464.5414	2136.097
464.7054	2080.023
464.8694	2045.761
465.0334	2084.871
465.1975	2144.83
465.3615	2159.241
465.5255	2149.869
465.6895	2151.428
465.8535	2198.16
466.0175	2275.352
466.1815	2255.698
466.3455	2185.26
466.5095	2123.263
466.6734	2036.06
466.8374	2002.652
467.0014	2035.443
467.1653	2136.255
467.3293	2186.02
467.4932	2216.26
467.6571	2242.484
467.8211	2218.527
467.985	2165.921
468.1489	2148.735
468.3128	2185.922
468.4767	2225.29
468.6406	2241.688
468.8045	2239.608
468.9684	2235.349
469.1323	2216.139
469.2962	2213.029
469.46	2231.034
469.6239	2252.454
469.7878	2238.745
469.9516	2184.761
470.1154	2116.1
470.2793	2092.068
470.4431	2098.762
470.607	2120.661
470.7708	2151.315
470.9346	2138.216
471.0984	2175.309
471.2622	2214.319
471.426	2207.564
471.5898	2219.395
471.7536	2271.994
471.9174	2315.592
472.0811	2346.215
472.2449	2350.95
472.4087	2338.998
472.5724	2321.299
472.7362	2264.874
472.8999	2180.743
473.0637	2139.183
473.2274	2169.297
473.3911	2200.459
473.5548	2215.104
473.7185	2225.176
473.8822	2220.511
474.0459	2249.086
474.2096	2276.024
474.3733	2288.717
474.537	2306.642
474.7007	2303.54
474.8643	2289.629
475.028	2311.151
475.1917	2281.964
475.3553	2228.449
475.519	2206.652
475.6826	2193.186
475.8463	2221.801
476.0099	2246.528
476.1735	2223.746
476.3371	2171.633
476.5007	2102.756
476.6643	2116.538
476.8279	2175.131
476.9915	2216.926
477.1551	2237.99
477.3187	2251.864
477.4823	2262.936
477.6458	2312.316
477.8094	2331.574
477.9729	2312.058
478.1365	2295.26
478.3	2270.81
478.4636	2247.512
478.6271	2218.352
478.7906	2178.898
478.9541	2181.291
479.1176	2218.265
479.2812	2274.654
479.4447	2328.44
479.6082	2332.247
479.7716	2314.211
479.9351	2264.221
480.0986	2240.912
480.2621	2267.87
480.4255	2269.218
480.589	2264.159
480.7524	2223.022
480.9159	2228.154
481.0793	2242.091
481.2428	2259.007
481.4062	2291.738
481.5696	2338.302
481.733	2349.312
481.8964	2337.594
482.0598	2324.273
482.2232	2273.876
482.3866	2236.057
482.55	2243.061
482.7134	2259.154
482.8768	2275.467
483.0401	2266.65
483.2035	2260.21
483.3668	2267.635
483.5302	2268.926
483.6935	2273.444
483.8568	2269.304
484.0202	2212.471
484.1835	2181.265
484.3468	2210.618
484.5101	2242.133
484.6734	2254.97
484.8367	2265.219
485	2248.163
485.1633	2228.804
485.3266	2217.014
485.4899	2146.607
485.6531	2051.776
485.8164	1958.506
485.9796	1774.538
486.1429	1619.211
486.3061	1626.381
486.4694	1783.176
486.6326	1972.099
486.7958	2061.755
486.959	2076.432
487.1223	2031.986
487.2855	1998.08
487.4486	2047.211
487.6118	2128.45
487.775	2169.97
487.9382	2204.921
488.1014	2239.59
488.2646	2245.143
488.4277	2213.889
488.5909	2148.469
488.754	2088.893
488.9171	2055.544
489.0803	2035.419
489.2434	2067.079
489.4066	2178.615
489.5697	2297.362
489.7328	2340.922
489.8959	2334.329
490.059	2295.047
490.2221	2272.389
490.3852	2263.624
490.5482	2256.021
490.7113	2249.927
490.8744	2223.756
491.0374	2146.734
491.2005	2150.421
491.3636	2200.325
491.5266	2247.512
491.6896	2213.266
491.8527	2078.979
492.0157	1961.378
492.1787	1948.202
492.3417	2026.748
492.5047	2115.461
492.6677	2183.542
492.8307	2233.142
492.9937	2273.036
493.1567	2270.577
493.3196	2220.427
493.4826	2172.352
493.6456	2143.509
493.8085	2101.32
493.9715	2102.508
494.1344	2153.286
494.2974	2246.303
494.4603	2281.741
494.6232	2273.728
494.7861	2289.875
494.949	2283.592
495.1119	2291.574
495.2748	2293.87
495.4377	2257.57
495.6006	2181.101
495.7635	2088.095
495.9264	2099.625
496.0892	2189.57
496.2521	2297.77
496.4149	2300.808
496.5778	2265.5
496.7407	2231.202
496.9035	2220.705
497.0663	2227.884
497.2291	2263.773
497.3919	2286.977
497.5547	2333.75
497.7176	2297.56
497.8804	2255.952
498.0432	2193.059
498.2059	2095.151
498.3687	2019.66
498.5315	2032.993
498.6942	2121.867
498.857	2236.048
499.0198	2263.239
499.1825	2242.048
499.3452	2236.396
499.508	2237.714
499.6707	2259.371
499.8334	2253.273
499.9962	2203.035
500.1589	2162.721
500.3216	2129.103
500.4843	2109.495
500.6469	2091.047
500.8096	2119.578
500.9723	2180.784
501.135	2189.985
501.2976	2137.329
501.4603	2103.816
501.623	2088.663
501.7856	2086.062
501.9482	2098.819
502.1109	2128.663
502.2735	2167.63
502.4361	2186.487
502.5987	2189.701
502.7614	2187.981
502.924	2216.639
503.0865	2258.643
503.2491	2289.991
503.4117	2289.421
503.5743	2231.933
503.7368	2163.102
503.8994	2094.709
504.062	2046.659
504.2245	2033.997
504.3871	2121.935
504.5496	2252.297
504.7121	2324.003
504.8746	2276.636
505.0372	2205.074
505.1997	2198.449
505.3622	2245.698
505.5247	2294.239
505.6872	2317.999
505.8497	2326.517
506.0121	2364.939
506.1746	2370.512
506.3371	2339.962
506.4995	2294.695
506.662	2243.418
506.8244	2235.307
506.9869	2247.039
507.1493	2245.627
507.3117	2238.289
507.4742	2246.808
507.6366	2239.222
507.799	2211.479
507.9614	2139.64
508.1238	2093.979
508.2862	2091.039
508.4485	2162.049
508.6109	2233.372
508.7733	2259.117
508.9357	2284.209
509.098	2296.677
509.2604	2307.021
509.4227	2309.226
509.5851	2264.661
509.7474	2181.738
509.9097	2120.754
510.072	2120.823
510.2343	2186.312
510.3966	2235.087
510.5589	2214.468
510.7212	2176.688
510.8835	2149.57
511.0458	2134.951
511.2081	2170.359
511.3703	2220.931
511.5326	2244.802
511.6949	2263.957
511.8571	2265.891
512.0193	2264.273
512.1816	2182.352
512.3438	2113.371
512.506	2079.807
512.6682	2070.014
512.8304	2075.498
512.9926	2106.335
513.1548	2122.407
513.317	2110.162
513.4792	2122.966
513.6414	2099.838
513.8035	2056.371
513.9657	2007.183
514.1279	1987.124
514.29	1988.018
514.4521	2028.311
514.6143	2043.994
514.7764	2056.801
514.9385	2037.729
515.1006	2066.323
515.2628	2071.931
515.4249	2062.632
515.587	2068.801
515.7491	2093.224
515.9111	2108.329
516.0732	2106.533
516.2353	2063.202
516.3973	1990.474
