SPECTRUM DATA FILE
SpectrumCount:	1
PixelCount:	3648
UserName:	ToughBook User
SampleName:	
LightSource:	
Comments:	
DeviceName:	Qwave
DeviceManufacturer:	Broadcom
DeviceSerialNo:	11311

Name:	last spectrum
Date:	2024-05-02T15:03:00.9515492+02:00
ExposureTime:	0.02
TemporalAvg:	1
IntensityUnit:	normalizedCounts
CCDLoadLevel:	0.04994079
Temperature:	29.33926
DiagramColor:	200
ProcessingSteps:	335

Wavelength [nm]	Intensity1
334.421	15.06081
334.5891	14.18254
334.7573	7.184496
334.9254	9.01288
335.0935	8.767276
335.2616	16.1502
335.4297	11.96024
335.5978	10.92412
335.7659	10.3956
335.934	12.56826
336.1021	11.72325
336.2701	11.11854
336.4382	10.27357
336.6063	10.18485
336.7744	12.51532
336.9424	13.45288
337.1105	7.735678
337.2785	11.61659
337.4466	13.776
337.6146	8.110743
337.7827	14.66015
337.9507	10.19316
338.1187	15.68055
338.2867	10.14621
338.4548	9.150667
338.6228	13.43032
338.7908	11.03566
338.9588	14.23429
339.1268	9.223709
339.2948	11.91263
339.4628	10.98326
339.6308	9.522256
339.7988	12.14348
339.9667	13.43468
340.1347	12.75537
340.3027	15.65128
340.4707	10.28559
340.6386	14.73826
340.8066	14.81748
340.9745	11.30035
341.1425	10.676
341.3104	12.86593
341.4784	18.43477
341.6463	12.81486
341.8142	10.40416
341.9821	11.32195
342.1501	16.47652
342.318	13.23937
342.4859	14.50571
342.6538	14.87145
342.8217	14.65473
342.9896	11.42001
343.1575	14.65433
343.3254	10.35747
343.4933	11.99061
343.6612	13.80242
343.829	18.78823
343.9969	17.68328
344.1648	15.47051
344.3326	16.77217
344.5005	17.4318
344.6683	12.16235
344.8362	11.61576
345.004	18.99316
345.1719	14.9568
345.3397	11.35306
345.5075	16.1356
345.6754	17.00344
345.8432	19.03211
346.011	17.19678
346.1788	19.21473
346.3466	14.47604
346.5144	9.918845
346.6822	21.09426
346.85	18.23109
347.0178	13.04076
347.1856	13.66238
347.3534	17.2329
347.5211	12.95652
347.6889	12.09755
347.8567	13.76582
348.0244	10.90375
348.1922	14.07364
348.3599	18.96264
348.5277	16.61087
348.6954	12.61008
348.8632	13.73067
349.0309	15.30875
349.1986	12.62396
349.3663	12.82782
349.5341	11.20865
349.7018	13.80186
349.8695	14.27394
350.0372	11.58161
350.2049	14.08137
350.3726	13.6346
350.5403	15.91579
350.7079	19.65899
350.8756	14.6966
351.0433	15.31615
351.211	17.8666
351.3786	15.26828
351.5463	15.35731
351.714	16.10126
351.8816	12.05958
352.0493	16.04287
352.2169	16.25649
352.3846	15.92805
352.5522	14.61474
352.7198	13.93864
352.8875	14.32174
353.0551	18.90478
353.2227	20.88045
353.3903	18.53785
353.5579	23.77696
353.7255	20.86937
353.8931	17.98721
354.0607	17.41301
354.2283	16.67762
354.3958	22.81366
354.5634	21.66975
354.731	20.91503
354.8986	16.76656
355.0661	13.72406
355.2337	17.33021
355.4012	18.00203
355.5688	16.97302
355.7363	15.57552
355.9039	17.54485
356.0714	16.90884
356.239	13.22025
356.4065	14.90427
356.574	11.89983
356.7415	16.07092
356.909	14.53022
357.0765	13.16294
357.244	12.97922
357.4115	16.74339
357.579	15.60256
357.7465	16.67754
357.914	16.04358
358.0815	15.13528
358.249	18.47038
358.4164	16.16004
358.5839	15.97347
358.7513	13.02738
358.9188	11.76531
359.0862	15.30363
359.2537	15.26152
359.4211	19.2779
359.5886	21.31059
359.756	17.17183
359.9234	17.83186
360.0909	17.5005
360.2583	12.95952
360.4257	19.53257
360.5931	17.26472
360.7605	20.60893
360.9279	16.52162
361.0953	10.20794
361.2627	18.03535
361.4301	16.2043
361.5974	19.96728
361.7648	19.56002
361.9322	11.08183
362.0995	16.26985
362.2669	19.69009
362.4343	20.90656
362.6016	16.22914
362.769	21.65966
362.9363	17.44027
363.1036	14.76694
363.271	17.51266
363.4383	16.41333
363.6056	16.25624
363.7729	17.62842
363.9402	14.99485
364.1075	19.51718
364.2748	21.25392
364.4421	22.41755
364.6094	20.9603
364.7767	20.36036
364.944	23.89949
365.1113	20.57285
365.2786	20.07476
365.4458	18.34485
365.6131	16.81925
365.7803	19.46948
365.9476	24.65681
366.1148	25.26342
366.2821	20.87765
366.4493	21.67587
366.6166	21.4703
366.7838	20.93866
366.951	21.43222
367.1182	21.53761
367.2855	19.90986
367.4527	22.68389
367.6199	23.48233
367.7871	20.93944
367.9543	22.27085
368.1215	21.62528
368.2886	24.15854
368.4558	20.14767
368.623	23.16871
368.7902	21.57941
368.9573	21.48929
369.1245	21.93133
369.2917	22.52842
369.4588	21.3898
369.6259	23.15474
369.7931	23.64688
369.9602	23.70853
370.1274	21.59927
370.2945	21.82106
370.4616	22.0976
370.6287	18.61927
370.7958	25.96058
370.963	23.18833
371.1301	21.02774
371.2971	24.59938
371.4643	28.4708
371.6313	25.82141
371.7984	23.5088
371.9655	24.31124
372.1326	19.40709
372.2997	24.81248
372.4667	22.80724
372.6338	22.47954
372.8008	28.51646
372.9679	27.96127
373.1349	25.78019
373.3019	24.34529
373.469	24.61275
373.636	18.30345
373.803	19.03212
373.9701	23.97752
374.1371	27.30027
374.3041	25.34381
374.4711	21.93215
374.6381	22.5154
374.8051	21.53497
374.9721	22.44848
375.1391	24.66095
375.3061	26.66613
375.473	29.26721
375.64	28.12797
375.8069	29.55793
375.9739	28.62253
376.1409	27.14564
376.3078	21.44421
376.4748	19.00695
376.6417	20.96286
376.8087	27.71246
376.9756	26.6712
377.1425	28.50187
377.3094	27.4348
377.4763	30.82598
377.6432	26.6904
377.8102	27.40853
377.9771	27.77227
378.144	32.08199
378.3109	30.92114
378.4777	27.51944
378.6446	29.73529
378.8115	28.92124
378.9784	26.26539
379.1452	23.97475
379.3121	24.94828
379.4789	23.86358
379.6458	23.44617
379.8127	24.27804
379.9795	26.75279
380.1463	29.26641
380.3131	28.75162
380.48	27.71572
380.6468	23.11549
380.8136	29.73959
380.9804	32.21012
381.1472	26.27443
381.314	26.9036
381.4808	24.95917
381.6476	24.43439
381.8144	27.91409
381.9812	27.98574
382.148	26.93611
382.3147	24.43833
382.4815	23.10997
382.6483	22.36426
382.815	20.37436
382.9818	22.31556
383.1485	23.38463
383.3153	21.07641
383.482	25.35675
383.6487	25.46892
383.8155	25.42001
383.9822	28.60624
384.1489	29.88256
384.3156	25.51124
384.4823	29.27659
384.649	32.46389
384.8157	30.81016
384.9824	28.99171
385.1491	28.11074
385.3158	30.84978
385.4825	31.9617
385.6491	27.62395
385.8158	29.63003
385.9825	31.25764
386.1491	27.45163
386.3157	32.98901
386.4824	32.96396
386.649	35.28347
386.8157	29.37877
386.9823	31.39172
387.1489	28.22874
387.3156	28.25492
387.4821	28.86614
387.6488	30.05844
387.8154	31.14267
387.982	25.07769
388.1486	24.543
388.3152	31.10472
388.4818	27.73386
388.6483	30.82029
388.8149	30.70879
388.9815	36.30334
389.148	35.57801
389.3146	32.18041
389.4811	37.72564
389.6477	37.01458
389.8142	38.98493
389.9808	35.77921
390.1473	33.56529
390.3138	34.53941
390.4804	32.83885
390.6469	28.12752
390.8134	28.36101
390.9799	35.72741
391.1464	42.46019
391.3129	39.26847
391.4794	40.32816
391.6459	39.09344
391.8124	39.74318
391.9789	37.825
392.1453	30.68652
392.3118	33.16702
392.4782	32.51311
392.6447	28.89579
392.8112	32.65607
392.9776	28.06177
393.144	25.64637
393.3105	21.7067
393.4769	22.30448
393.6433	25.28903
393.8098	30.10733
393.9762	29.50393
394.1426	32.34575
394.309	30.45605
394.4754	34.68703
394.6418	35.10435
394.8082	35.83825
394.9746	41.17236
395.141	40.47869
395.3073	43.90598
395.4737	40.62863
395.64	42.00466
395.8064	44.30093
395.9728	38.96963
396.1391	36.98944
396.3055	34.68585
396.4718	31.79669
396.6381	29.87051
396.8045	23.95551
396.9708	27.94989
397.1371	27.73238
397.3034	27.10736
397.4697	33.62023
397.636	43.29204
397.8023	44.88466
397.9686	48.837
398.1349	46.55945
398.3012	50.47172
398.4675	45.77684
398.6337	45.81969
398.8	51.78939
398.9662	48.16882
399.1325	53.29618
399.2988	53.75235
399.465	49.96341
399.6313	52.79599
399.7975	49.64864
399.9637	53.13274
400.1299	51.29269
400.2961	52.37733
400.4624	48.55827
400.6286	52.44474
400.7948	53.93666
400.961	52.458
401.1272	54.98256
401.2934	53.47489
401.4595	59.75629
401.6257	58.72207
401.7919	57.78533
401.9581	61.90397
402.1242	61.53426
402.2904	55.66914
402.4565	55.67916
402.6227	58.62706
402.7888	61.82933
402.955	58.77326
403.1211	54.24466
403.2872	46.24163
403.4533	49.29182
403.6194	62.2072
403.7856	64.23272
403.9517	61.07638
404.1177	65.32088
404.2838	59.30184
404.4499	54.58434
404.616	52.17135
404.7821	54.49097
404.9482	61.47752
405.1142	60.74641
405.2803	58.07289
405.4464	57.08451
405.6124	55.96782
405.7784	52.46109
405.9445	53.41555
406.1105	54.49292
406.2766	59.02239
406.4426	57.45428
406.6086	58.24027
406.7746	63.61959
406.9406	68.33332
407.1066	66.15173
407.2726	60.46627
407.4386	63.30774
407.6046	63.44681
407.7706	59.68321
407.9366	62.66507
408.1025	63.09676
408.2685	69.85506
408.4344	69.34008
408.6004	66.79745
408.7664	69.16447
408.9323	73.7923
409.0983	68.75659
409.2642	74.91109
409.4301	72.25422
409.596	67.34565
409.762	66.7029
409.9279	63.07094
410.0938	60.07737
410.2597	60.55236
410.4256	65.3463
410.5915	63.83235
410.7574	69.41817
410.9232	65.65305
411.0891	66.98043
411.255	72.44559
411.4209	72.06438
411.5867	76.8488
411.7526	77.89404
411.9184	71.79913
412.0843	64.78025
412.2501	67.23689
412.4159	72.87218
412.5818	75.51501
412.7476	74.73378
412.9134	66.08391
413.0792	73.46673
413.245	69.67162
413.4108	67.48576
413.5766	73.12843
413.7424	74.43176
413.9082	77.88028
414.074	74.8493
414.2397	75.49076
414.4055	69.67959
414.5713	73.28639
414.737	69.89489
414.9028	75.10237
415.0685	72.99005
415.2343	70.89023
415.4	70.11662
415.5658	68.2061
415.7315	72.37766
415.8972	74.72511
416.0629	80.91454
416.2286	80.9593
416.3943	73.98574
416.56	77.57027
416.7257	80.49955
416.8914	78.11102
417.0571	71.99171
417.2228	72.32265
417.3884	62.38289
417.5541	64.4492
417.7198	72.54736
417.8854	70.23537
418.0511	70.44554
418.2167	72.82378
418.3824	79.12789
418.548	76.04478
418.7136	72.55536
418.8792	72.95773
419.0449	77.44599
419.2105	80.22267
419.3761	80.19811
419.5417	77.35017
419.7073	76.28837
419.8729	73.18672
420.0385	67.93966
420.204	69.92921
420.3696	79.30369
420.5352	78.52956
420.7007	81.28888
420.8663	80.40141
421.0319	82.74271
421.1974	84.229
421.3629	88.28938
421.5285	84.46061
421.694	79.78919
421.8595	81.82974
422.0251	88.11544
422.1906	87.21958
422.3561	79.86024
422.5216	79.23711
422.6871	73.48657
422.8526	71.79591
423.0181	76.59562
423.1835	88.29041
423.349	89.22306
423.5145	85.34559
423.68	85.17168
423.8454	79.15755
424.0109	85.19252
424.1763	90.48057
424.3418	90.95808
424.5072	89.16572
424.6726	86.07285
424.838	84.82087
425.0035	84.7541
425.1689	84.34468
425.3343	85.67691
425.4997	83.18521
425.6651	88.38858
425.8305	88.83324
425.9959	83.20828
426.1613	80.55007
426.3267	86.04475
426.492	92.99107
426.6574	87.42159
426.8228	89.99282
426.9881	78.92127
427.1534	73.53323
427.3188	81.85777
427.4841	85.47587
427.6495	84.86623
427.8148	88.90791
427.9801	87.3279
428.1454	92.69091
428.3107	84.65225
428.476	90.95961
428.6414	90.25086
428.8066	82.11191
428.9719	88.37498
429.1372	91.88849
429.3025	85.37788
429.4678	83.11162
429.633	82.07482
429.7983	79.03512
429.9636	71.05255
430.1288	70.58937
430.294	70.17075
430.4593	70.73247
430.6245	70.32018
430.7897	62.73343
430.955	66.18433
431.1202	73.88229
431.2854	79.76201
431.4506	87.34122
431.6158	96.94843
431.781	96.75115
431.9462	106.8518
432.1114	105.6344
432.2766	92.56758
432.4417	81.82172
432.6069	84.15205
432.772	92.79186
432.9372	99.05586
433.1024	104.9836
433.2675	103.4598
433.4326	99.78317
433.5977	95.54082
433.7629	91.30412
433.928	85.31781
434.0931	83.28275
434.2582	85.30491
434.4233	91.46471
434.5884	95.83614
434.7535	98.97743
434.9186	103.8084
435.0837	103.4035
435.2488	92.92011
435.4138	95.34422
435.5789	96.9762
435.744	101.3013
435.909	105.4976
436.0741	113.1145
436.2391	113.2785
436.4042	111.4298
436.5692	119.3874
436.7342	115.2295
436.8992	114.3525
437.0643	113.8736
437.2293	110.2679
437.3943	104.2963
437.5593	107.0793
437.7243	112.2345
437.8893	112.1671
438.0542	110.3277
438.2192	108.2074
438.3842	98.50004
438.5491	94.07314
438.7141	98.21113
438.8791	102.486
439.044	107.8833
439.209	111.3485
439.3739	109.9146
439.5388	117.8135
439.7037	108.7898
439.8687	110.5584
440.0336	111.4479
440.1985	117.6968
440.3634	115.8707
440.5283	111.7719
440.6932	111.0354
440.8581	114.6425
441.0229	113.2421
441.1878	127.2277
441.3527	125.8189
441.5175	112.8033
441.6824	113.6773
441.8472	126.4957
442.0121	127.4554
442.1769	125.5969
442.3418	126.1477
442.5066	116.2831
442.6714	114.0765
442.8362	122.1528
443.001	124.5858
443.1659	130.3481
443.3307	116.6571
443.4955	125.0325
443.6602	119.1517
443.825	125.8355
443.9898	130.8385
444.1546	127.4137
444.3193	123.4659
444.4841	131.9967
444.6488	129.2802
444.8136	123.9227
444.9783	129.3163
445.1431	129.3846
445.3078	131.7206
445.4725	127.7711
445.6372	120.229
445.802	118.2703
445.9667	120.4297
446.1314	122.9258
446.2961	129.0012
446.4608	126.3393
446.6255	125.3963
446.7901	128.3829
446.9548	131.4265
447.1195	129.186
447.2841	134.3671
447.4488	141.0759
447.6134	134.2665
447.7781	133.4443
447.9427	137.7688
448.1074	129.9312
448.272	132.0059
448.4366	135.0192
448.6012	137.0307
448.7658	134.8985
448.9305	134.4681
449.095	138.2548
449.2596	140.7866
449.4242	139.7585
449.5888	135.0826
449.7534	138.9824
449.9179	144.026
450.0825	138.9431
450.2471	144.976
450.4116	152.3324
450.5762	150.0702
450.7407	151.2962
450.9052	148.801
451.0698	146.868
451.2343	149.4116
451.3988	146.1861
451.5633	142.8525
451.7278	145.2388
451.8923	147.7553
452.0568	148.8511
452.2213	144.7466
452.3858	143.9021
452.5503	143.2003
452.7148	139.2734
452.8792	137.8522
453.0437	128.0345
453.2081	132.445
453.3726	137.9539
453.537	137.5821
453.7015	144.385
453.8659	151.4448
454.0303	150.9996
454.1947	155.9208
454.3592	157.0817
454.5236	151.1627
454.688	142.5595
454.8524	139.9129
455.0168	145.7174
455.1811	140.527
455.3455	146.7988
455.5099	146.9043
455.6743	147.0781
455.8386	155.5087
456.003	159.7686
456.1673	160.1032
456.3317	161.8497
456.496	157.2736
456.6603	151.4291
456.8246	156.4894
456.989	155.4285
457.1533	152.7191
457.3176	150.0571
457.4819	147.5573
457.6462	156.8087
457.8105	155.9642
457.9748	154.0137
458.1391	147.8111
458.3033	142.4592
458.4676	149.7213
458.6319	157.5511
458.7961	150.6609
458.9604	155.4033
459.1246	154.8971
459.2888	151.6044
459.4531	151.6384
459.6173	146.8129
459.7815	156.5027
459.9457	152.373
460.11	154.3128
460.2741	155.6935
460.4384	157.0383
460.6025	151.0535
460.7667	156.2047
460.9309	164.4598
461.0951	160.4854
461.2592	158.4326
461.4234	152.7099
461.5876	155.422
461.7517	158.4851
461.9159	162.555
462.08	161.5502
462.2441	160.9745
462.4082	155.6222
462.5724	156.3171
462.7365	160.2337
462.9006	154.8233
463.0647	162.7199
463.2288	160.5489
463.3929	162.8707
463.557	164.6266
463.721	157.4198
463.8851	151.6161
464.0492	156.6887
464.2132	162.4895
464.3773	161.967
464.5414	160.7079
464.7054	155.1455
464.8694	155.4952
465.0334	162.2076
465.1975	160.5995
465.3615	166.0364
465.5255	157.3727
465.6895	162.0524
465.8535	161.0748
466.0175	158.6577
466.1815	162.8606
466.3455	160.8553
466.5095	157.2168
466.6734	147.7665
466.8374	147.5921
467.0014	151.2818
467.1653	158.8986
467.3293	164.9983
467.4932	169.1473
467.6571	164.5324
467.8211	160.2363
467.985	160.2732
468.1489	161.9502
468.3128	173.4549
468.4767	166.6225
468.6406	163.8095
468.8045	171.6898
468.9684	170.8357
469.1323	163.053
469.2962	164.4341
469.46	170.3835
469.6239	165.8922
469.7878	167.3565
469.9516	158.0948
470.1154	157.9895
470.2793	159.9993
470.4431	157.6443
470.607	162.212
470.7708	168.9686
470.9346	161.3719
471.0984	161.9905
471.2622	171.2516
471.426	171.1356
471.5898	167.726
471.7536	171.3211
471.9174	174.0672
472.0811	184.4531
472.2449	177.8792
472.4087	180.4041
472.5724	176.0282
472.7362	173.3307
472.8999	172.2863
473.0637	167.5408
473.2274	168.8084
473.3911	163.1906
473.5548	168.4589
473.7185	165.2337
473.8822	163.5031
474.0459	165.8004
474.2096	175.6524
474.3733	176.472
474.537	176.7274
474.7007	166.2547
474.8643	174.5977
475.028	182.3876
475.1917	182.0806
475.3553	178.694
475.519	171.1508
475.6826	169.899
475.8463	170.5758
476.0099	171.2148
476.1735	171.9924
476.3371	172.149
476.5007	163.8312
476.6643	167.2872
476.8279	167.3009
476.9915	171.0017
477.1551	169.1071
477.3187	173.8269
477.4823	177.5417
477.6458	182.5503
477.8094	180.6227
477.9729	172.1631
478.1365	174.302
478.3	173.3937
478.4636	175.1477
478.6271	175.6562
478.7906	175.2876
478.9541	174.7985
479.1176	176.7178
479.2812	176.4466
479.4447	180.1364
479.6082	178.7863
479.7716	180.0875
479.9351	177.6934
480.0986	178.5872
480.2621	177.8143
480.4255	178.0268
480.589	179.2872
480.7524	178.6131
480.9159	177.9559
481.0793	170.7985
481.2428	176.0826
481.4062	177.8795
481.5696	183.4778
481.733	181.2718
481.8964	182.6065
482.0598	181.602
482.2232	183.3775
482.3866	178.3717
482.55	174.2268
482.7134	179.4394
482.8768	182.3257
483.0401	184.1369
483.2035	178.059
483.3668	174.2999
483.5302	180.0444
483.6935	183.8192
483.8568	182.5206
484.0202	170.8027
484.1835	174.856
484.3468	175.5458
484.5101	176.7125
484.6734	173.641
484.8367	172.2065
485	169.3767
485.1633	176.6371
485.3266	178.9061
485.4899	168.9987
485.6531	167.4249
485.8164	158.6763
485.9796	141.7116
486.1429	137.9175
486.3061	136.4193
486.4694	155.5754
486.6326	164.8261
486.7958	166.8076
486.959	164.8977
487.1223	162.5982
487.2855	166.4902
487.4486	169.5863
487.6118	170.3755
487.775	170.942
487.9382	179.5842
488.1014	185.6791
488.2646	176.9917
488.4277	175.2981
488.5909	183.6485
488.754	176.5083
488.9171	174.7239
489.0803	174.7367
489.2434	171.0398
489.4066	176.8429
489.5697	187.4875
489.7328	191.896
489.8959	189.3755
490.059	187.6032
490.2221	187.4298
490.3852	180.8703
490.5482	182.1302
490.7113	185.3066
490.8744	182.9594
491.0374	187.4282
491.2005	186.4209
491.3636	189.7756
491.5266	193.9217
491.6896	189.5053
491.8527	176.2118
492.0157	168.0748
492.1787	169.5504
492.3417	173.0884
492.5047	177.5524
492.6677	187.159
492.8307	187.4284
492.9937	198.8634
493.1567	191.3772
493.3196	190.4979
493.4826	180.8044
493.6456	178.5492
493.8085	176.816
493.9715	178.8497
494.1344	179.8796
494.2974	182.8612
494.4603	188.8173
494.6232	192.8844
494.7861	196.3971
494.949	192.7158
495.1119	194.5391
495.2748	188.5862
495.4377	194.6897
495.6006	185.0266
495.7635	180.4629
495.9264	185.3808
496.0892	183.8637
496.2521	195.6002
496.4149	194.9883
496.5778	197.1808
496.7407	195.0648
496.9035	190.868
497.0663	187.8044
497.2291	189.8685
497.3919	194.6756
497.5547	197.4025
497.7176	195.9199
497.8804	187.3472
498.0432	182.955
498.2059	184.9455
498.3687	187.0267
498.5315	183.2915
498.6942	183.224
498.857	189.2267
499.0198	191.0075
499.1825	188.3036
499.3452	189.553
499.508	193.4248
499.6707	197.5346
499.8334	192.3769
499.9962	183.4655
500.1589	185.4065
500.3216	181.8498
500.4843	183.5582
500.6469	187.0253
500.8096	185.757
500.9723	192.4413
501.135	189.9711
501.2976	180.31
501.4603	176.5813
501.623	177.9392
501.7856	184.7578
501.9482	181.7396
502.1109	184.0065
502.2735	190.5984
502.4361	191.0385
502.5987	199.1551
502.7614	193.0373
502.924	190.5752
503.0865	200.3639
503.2491	203.4106
503.4117	200.1268
503.5743	198.7495
503.7368	198.5759
503.8994	187.5815
504.062	184.8466
504.2245	185.1908
504.3871	192.1593
504.5496	200.3347
504.7121	201.8644
504.8746	201.802
505.0372	196.2382
505.1997	202.147
505.3622	198.9252
505.5247	204.338
505.6872	204.6404
505.8497	206.4298
506.0121	213.3427
506.1746	216.2278
506.3371	208.0912
506.4995	199.7375
506.662	200.7138
506.8244	194.8618
506.9869	202.2453
507.1493	202.4346
507.3117	202.4981
507.4742	197.2202
507.6366	198.5126
507.799	200.1788
507.9614	195.7584
508.1238	195.1613
508.2862	198.5774
508.4485	199.8426
508.6109	207.8518
508.7733	203.8877
508.9357	210.8634
509.098	212.0204
509.2604	204.4775
509.4227	201.0155
509.5851	206.2048
509.7474	196.7388
509.9097	189.9914
510.072	195.0063
510.2343	204.2865
510.3966	208.8906
510.5589	212.1875
510.7212	201.6695
510.8835	203.0555
511.0458	202.2836
511.2081	199.9517
511.3703	208.6301
511.5326	210.1344
511.6949	206.5106
511.8571	211.2121
512.0193	213.3052
512.1816	210.3873
512.3438	210.8928
512.506	202.7831
512.6682	190.5526
512.8304	196.2902
512.9926	197.7557
513.1548	197.6553
513.317	199.232
513.4792	195.0861
513.6414	196.4943
513.8035	192.9565
513.9657	188.8838
514.1279	197.2496
514.29	192.0818
514.4521	194.2773
514.6143	201.5654
514.7764	203.9991
514.9385	205.1215
515.1006	204.4374
515.2628	196.3424
515.4249	198.7885
515.587	190.7469
515.7491	196.1248
515.9111	197.2612
516.0732	198.2955
