SPECTRUM DATA FILE
SpectrumCount:	1
PixelCount:	3648
UserName:	ToughBook User
SampleName:	
LightSource:	
Comments:	
DeviceName:	Qwave
DeviceManufacturer:	Broadcom
DeviceSerialNo:	11311

Name:	last spectrum
Date:	2024-05-02T15:02:26.4413983+02:00
ExposureTime:	0.02
TemporalAvg:	1
IntensityUnit:	normalizedCounts
CCDLoadLevel:	0.0489963
Temperature:	29.44586
DiagramColor:	200
ProcessingSteps:	335

Wavelength [nm]	Intensity1
334.421	11.47582
334.5891	12.49597
334.7573	10.6777
334.9254	16.18007
335.0935	12.21791
335.2616	12.74366
335.4297	10.51058
335.5978	13.70075
335.7659	15.4312
335.934	10.61609
336.1021	9.893223
336.2701	10.85277
336.4382	13.025
336.6063	9.333324
336.7744	10.45356
336.9424	9.110593
337.1105	12.52194
337.2785	8.968802
337.4466	12.60702
337.6146	14.0352
337.7827	13.18086
337.9507	8.252086
338.1187	11.67026
338.2867	14.83915
338.4548	14.57177
338.6228	9.777134
338.7908	10.26445
338.9588	12.05593
339.1268	9.054813
339.2948	11.1558
339.4628	11.50684
339.6308	12.8532
339.7988	12.27943
339.9667	12.80787
340.1347	13.07365
340.3027	10.04474
340.4707	12.97109
340.6386	11.93699
340.8066	8.528796
340.9745	9.146032
341.1425	12.0099
341.3104	12.41391
341.4784	10.38234
341.6463	9.962437
341.8142	14.63999
341.9821	12.80591
342.1501	15.64799
342.318	15.88186
342.4859	14.54424
342.6538	12.54957
342.8217	15.46052
342.9896	14.75872
343.1575	15.08847
343.3254	13.97125
343.4933	14.27304
343.6612	15.07549
343.829	15.25022
343.9969	14.82444
344.1648	17.15543
344.3326	15.5625
344.5005	12.45774
344.6683	10.72376
344.8362	11.3344
345.004	18.29156
345.1719	12.98681
345.3397	14.19541
345.5075	16.90321
345.6754	14.00475
345.8432	14.17757
346.011	13.89595
346.1788	11.29601
346.3466	17.47788
346.5144	16.16383
346.6822	18.29601
346.85	18.89146
347.0178	11.37467
347.1856	10.87094
347.3534	15.92744
347.5211	10.91371
347.6889	12.72129
347.8567	16.21602
348.0244	15.5883
348.1922	15.74556
348.3599	16.31028
348.5277	21.27259
348.6954	12.8998
348.8632	15.44367
349.0309	13.56066
349.1986	15.39048
349.3663	13.30958
349.5341	12.96394
349.7018	11.18311
349.8695	14.76616
350.0372	14.99782
350.2049	10.61972
350.3726	14.30819
350.5403	16.05295
350.7079	14.5885
350.8756	10.13892
351.0433	14.0095
351.211	18.43463
351.3786	14.97559
351.5463	15.45977
351.714	18.91392
351.8816	13.59047
352.0493	15.2872
352.2169	17.35737
352.3846	14.17935
352.5522	11.69266
352.7198	18.4724
352.8875	18.76142
353.0551	19.95467
353.2227	19.99801
353.3903	14.08823
353.5579	18.60231
353.7255	22.64364
353.8931	19.34987
354.0607	17.1425
354.2283	15.76292
354.3958	15.19896
354.5634	18.7191
354.731	20.85526
354.8986	16.1976
355.0661	16.14411
355.2337	16.45192
355.4012	20.29052
355.5688	20.29235
355.7363	16.63757
355.9039	15.75055
356.0714	14.88771
356.239	16.36018
356.4065	13.93236
356.574	13.32108
356.7415	14.32567
356.909	16.244
357.0765	19.52827
357.244	13.98655
357.4115	14.71948
357.579	14.07635
357.7465	17.97397
357.914	11.47129
358.0815	10.29284
358.249	16.76199
358.4164	15.14173
358.5839	13.92725
358.7513	18.25007
358.9188	14.42837
359.0862	15.89768
359.2537	17.23616
359.4211	22.94473
359.5886	14.2622
359.756	13.32632
359.9234	22.21567
360.0909	16.75512
360.2583	16.51404
360.4257	17.16773
360.5931	14.60182
360.7605	18.01735
360.9279	15.37711
361.0953	17.55146
361.2627	16.4938
361.4301	15.13035
361.5974	17.02119
361.7648	17.81072
361.9322	15.7036
362.0995	19.42098
362.2669	21.79781
362.4343	22.43867
362.6016	19.71358
362.769	22.28575
362.9363	16.98148
363.1036	13.88468
363.271	17.02401
363.4383	19.7272
363.6056	19.79071
363.7729	22.39861
363.9402	20.81752
364.1075	15.53871
364.2748	16.34575
364.4421	18.93056
364.6094	17.721
364.7767	22.76386
364.944	20.25448
365.1113	22.25752
365.2786	19.07792
365.4458	16.11148
365.6131	23.93421
365.7803	21.63363
365.9476	25.69656
366.1148	16.45424
366.2821	21.10547
366.4493	18.89254
366.6166	16.53144
366.7838	22.16633
366.951	19.50063
367.1182	23.50721
367.2855	27.54482
367.4527	22.43617
367.6199	22.53593
367.7871	20.07601
367.9543	20.49991
368.1215	19.07954
368.2886	18.52497
368.4558	21.4146
368.623	20.94137
368.7902	18.99902
368.9573	19.28826
369.1245	22.15469
369.2917	21.35146
369.4588	23.17932
369.6259	22.33015
369.7931	22.74271
369.9602	26.33065
370.1274	22.74977
370.2945	20.43547
370.4616	19.65767
370.6287	19.39128
370.7958	20.53472
370.963	23.2009
371.1301	22.62173
371.2971	24.4477
371.4643	27.91441
371.6313	27.35073
371.7984	24.85763
371.9655	21.52863
372.1326	20.75587
372.2997	27.78397
372.4667	25.65795
372.6338	24.56714
372.8008	20.80877
372.9679	21.87472
373.1349	27.38327
373.3019	26.47029
373.469	20.96936
373.636	21.08738
373.803	25.19561
373.9701	22.64147
374.1371	21.70016
374.3041	22.10985
374.4711	19.19172
374.6381	19.77626
374.8051	18.81952
374.9721	23.41836
375.1391	23.85783
375.3061	24.70077
375.473	25.29889
375.64	24.59687
375.8069	23.40622
375.9739	23.02654
376.1409	23.96332
376.3078	27.04499
376.4748	26.13114
376.6417	26.11251
376.8087	20.91574
376.9756	25.69916
377.1425	22.17609
377.3094	22.46437
377.4763	29.67362
377.6432	34.5493
377.8102	26.66267
377.9771	32.90106
378.144	32.97543
378.3109	28.80719
378.4777	28.97295
378.6446	27.3808
378.8115	25.48937
378.9784	29.28918
379.1452	25.93883
379.3121	27.38321
379.4789	28.4769
379.6458	24.75386
379.8127	22.83652
379.9795	28.0626
380.1463	26.1193
380.3131	29.42559
380.48	28.37819
380.6468	29.64717
380.8136	24.97621
380.9804	27.53308
381.1472	32.01822
381.314	30.83522
381.4808	31.08398
381.6476	29.70855
381.8144	26.73701
381.9812	26.63166
382.148	24.72852
382.3147	24.43694
382.4815	24.3573
382.6483	24.7663
382.815	24.79827
382.9818	21.31039
383.1485	22.74189
383.3153	22.1481
383.482	24.02415
383.6487	26.47548
383.8155	27.6232
383.9822	22.10102
384.1489	28.61084
384.3156	30.23245
384.4823	31.80779
384.649	30.99405
384.8157	37.11255
384.9824	32.05527
385.1491	32.62509
385.3158	33.73537
385.4825	30.36941
385.6491	26.76081
385.8158	29.87893
385.9825	30.24642
386.1491	31.88692
386.3157	30.24459
386.4824	34.95856
386.649	33.36559
386.8157	29.60328
386.9823	26.28824
387.1489	26.50241
387.3156	32.83554
387.4821	30.74484
387.6488	30.59085
387.8154	25.94215
387.982	30.47634
388.1486	33.19285
388.3152	30.62711
388.4818	30.90749
388.6483	32.07086
388.8149	28.74836
388.9815	30.9265
389.148	36.01846
389.3146	34.60372
389.4811	33.42498
389.6477	37.94501
389.8142	33.81722
389.9808	36.69677
390.1473	40.01258
390.3138	37.16816
390.4804	29.88789
390.6469	31.49698
390.8134	32.57516
390.9799	37.18158
391.1464	39.7502
391.3129	42.15428
391.4794	42.51589
391.6459	42.15548
391.8124	39.5039
391.9789	40.12241
392.1453	28.83038
392.3118	32.46545
392.4782	37.98725
392.6447	34.00993
392.8112	20.44876
392.9776	23.66525
393.144	21.60044
393.3105	21.34623
393.4769	23.11185
393.6433	27.13436
393.8098	29.08654
393.9762	32.41949
394.1426	32.34455
394.309	35.233
394.4754	34.81006
394.6418	40.54794
394.8082	40.62515
394.9746	41.5989
395.141	44.61129
395.3073	45.24976
395.4737	42.38419
395.64	40.10775
395.8064	39.06374
395.9728	43.5958
396.1391	37.32846
396.3055	35.30674
396.4718	28.34046
396.6381	36.21072
396.8045	24.79847
396.9708	30.68789
397.1371	29.64978
397.3034	31.50657
397.4697	37.09093
397.636	41.13915
397.8023	50.04955
397.9686	42.73551
398.1349	47.23813
398.3012	53.22461
398.4675	54.33746
398.6337	50.12869
398.8	49.55613
398.9662	48.01917
399.1325	46.63744
399.2988	54.08585
399.465	55.24386
399.6313	52.2385
399.7975	53.0794
399.9637	52.76688
400.1299	55.18673
400.2961	52.99693
400.4624	51.73635
400.6286	51.05849
400.7948	51.76907
400.961	58.96375
401.1272	56.19368
401.2934	55.58236
401.4595	60.26649
401.6257	57.76877
401.7919	56.7625
401.9581	56.42978
402.1242	60.79656
402.2904	58.47334
402.4565	60.48885
402.6227	60.56375
402.7888	55.42044
402.955	59.37601
403.1211	58.19572
403.2872	55.96881
403.4533	54.45341
403.6194	52.26572
403.7856	54.76733
403.9517	62.22131
404.1177	60.56105
404.2838	60.70655
404.4499	51.3318
404.616	49.90847
404.7821	53.99162
404.9482	60.79142
405.1142	65.26256
405.2803	66.52483
405.4464	59.02514
405.6124	57.01198
405.7784	54.64386
405.9445	57.60671
406.1105	54.12616
406.2766	55.70514
406.4426	60.38023
406.6086	59.01249
406.7746	61.35058
406.9406	61.72
407.1066	61.32691
407.2726	64.45447
407.4386	58.04274
407.6046	58.89798
407.7706	55.58702
407.9366	59.47167
408.1025	70.25393
408.2685	68.90074
408.4344	64.28532
408.6004	63.71851
408.7664	69.78989
408.9323	64.39336
409.0983	71.43887
409.2642	68.50644
409.4301	63.35332
409.596	64.88633
409.762	60.64023
409.9279	56.98973
410.0938	55.43806
410.2597	55.39225
410.4256	57.35202
410.5915	67.43101
410.7574	63.38792
410.9232	59.51194
411.0891	67.55178
411.255	70.46983
411.4209	74.96163
411.5867	71.64404
411.7526	72.37035
411.9184	74.15796
412.0843	72.05009
412.2501	75.24709
412.4159	78.48467
412.5818	73.79434
412.7476	75.49283
412.9134	69.56598
413.0792	71.63467
413.245	71.98428
413.4108	68.05061
413.5766	76.76664
413.7424	73.83774
413.9082	75.78489
414.074	76.43948
414.2397	73.29013
414.4055	77.30037
414.5713	70.10349
414.737	74.13741
414.9028	80.00514
415.0685	76.91439
415.2343	65.37659
415.4	72.91351
415.5658	68.63088
415.7315	67.09376
415.8972	69.35099
416.0629	76.5335
416.2286	82.33685
416.3943	78.48363
416.56	75.3091
416.7257	77.50262
416.8914	77.87505
417.0571	75.79377
417.2228	71.78767
417.3884	66.9792
417.5541	69.49069
417.7198	69.88686
417.8854	71.08409
418.0511	79.96414
418.2167	80.73432
418.3824	75.00841
418.548	73.15193
418.7136	76.08762
418.8792	73.1798
419.0449	76.38543
419.2105	80.98728
419.3761	78.1027
419.5417	83.30233
419.7073	78.43732
419.8729	77.6202
420.0385	75.74695
420.204	75.73813
420.3696	79.2385
420.5352	80.62617
420.7007	86.21756
420.8663	87.60844
421.0319	86.63919
421.1974	79.61749
421.3629	87.26626
421.5285	84.96929
421.694	82.40325
421.8595	82.43297
422.0251	86.86652
422.1906	89.00436
422.3561	82.91729
422.5216	78.07504
422.6871	70.96369
422.8526	80.78192
423.0181	83.21329
423.1835	84.9183
423.349	86.02457
423.5145	82.75749
423.68	83.87675
423.8454	80.00495
424.0109	84.17787
424.1763	86.15337
424.3418	92.52557
424.5072	94.73452
424.6726	89.08983
424.838	86.36234
425.0035	83.5471
425.1689	88.72932
425.3343	87.05297
425.4997	81.54825
425.6651	86.77481
425.8305	87.24728
425.9959	84.49818
426.1613	86.27132
426.3267	85.58004
426.492	86.44051
426.6574	95.79922
426.8228	90.75925
426.9881	81.73388
427.1534	77.96557
427.3188	77.80692
427.4841	75.89675
427.6495	84.36363
427.8148	92.91145
427.9801	100.5593
428.1454	96.49542
428.3107	91.38913
428.476	86.95968
428.6414	82.53172
428.8066	73.74866
428.9719	82.94084
429.1372	78.80086
429.3025	83.29905
429.4678	86.18509
429.633	90.88216
429.7983	81.1353
429.9636	74.42056
430.1288	70.53984
430.294	68.96478
430.4593	65.38383
430.6245	73.15399
430.7897	70.26202
430.955	71.57729
431.1202	71.44775
431.2854	78.85451
431.4506	84.60349
431.6158	96.19961
431.781	100.8179
431.9462	101.6479
432.1114	102.4044
432.2766	96.21866
432.4417	84.27959
432.6069	85.01768
432.772	88.04602
432.9372	89.49959
433.1024	102.9433
433.2675	105.1731
433.4326	102.583
433.5977	100.8697
433.7629	88.44549
433.928	82.58173
434.0931	82.09535
434.2582	83.18909
434.4233	93.9249
434.5884	105.5826
434.7535	102.951
434.9186	108.1005
435.0837	103.1653
435.2488	99.59882
435.4138	98.1327
435.5789	99.95734
435.744	107.2686
435.909	106.0102
436.0741	109.9714
436.2391	112.1593
436.4042	110.5683
436.5692	109.5905
436.7342	113.5732
436.8992	118.5628
437.0643	112.0455
437.2293	106.3995
437.3943	108.9211
437.5593	110.1303
437.7243	108.8351
437.8893	117.6518
438.0542	109.1362
438.2192	102.5395
438.3842	94.85371
438.5491	94.74078
438.7141	103.8784
438.8791	109.5858
439.044	102.957
439.209	105.8174
439.3739	106.2093
439.5388	116.1717
439.7037	114.5022
439.8687	116.511
440.0336	111.8776
440.1985	105.7638
440.3634	109.8609
440.5283	110.0529
440.6932	114.7923
440.8581	119.3705
441.0229	126.5925
441.1878	128.1093
441.3527	127.6162
441.5175	118.1303
441.6824	117.8621
441.8472	122.8096
442.0121	123.8838
442.1769	127.4982
442.3418	122.5795
442.5066	120.9213
442.6714	126.7001
442.8362	128.2241
443.001	130.7135
443.1659	127.9219
443.3307	126.9197
443.4955	125.072
443.6602	129.2402
443.825	133.1862
443.9898	131.171
444.1546	124.7633
444.3193	124.4032
444.4841	128.5624
444.6488	132.3872
444.8136	127.0085
444.9783	133.0439
445.1431	134.8805
445.3078	129.779
445.4725	121.3096
445.6372	118.445
445.802	120.0558
445.9667	120.3551
446.1314	118.8655
446.2961	120.0913
446.4608	123.1481
446.6255	130.4355
446.7901	134.8092
446.9548	129.177
447.1195	133.6915
447.2841	138.1142
447.4488	139.8016
447.6134	141.2736
447.7781	144.122
447.9427	141.1356
448.1074	133.0293
448.272	129.8436
448.4366	132.3836
448.6012	137.1615
448.7658	139.2599
448.9305	139.8277
449.095	136.0697
449.2596	135.0505
449.4242	139.0525
449.5888	138.143
449.7534	141.601
449.9179	142.5091
450.0825	149.9418
450.2471	146.9678
450.4116	152.3858
450.5762	152.7889
450.7407	152.1585
450.9052	151.8106
451.0698	150.162
451.2343	146.0607
451.3988	152.2018
451.5633	150.298
451.7278	146.4193
451.8923	149.566
452.0568	152.2981
452.2213	147.4583
452.3858	144.7164
452.5503	147.1943
452.7148	142.3875
452.8792	134.1665
453.0437	133.3993
453.2081	142.3772
453.3726	146.0528
453.537	141.8837
453.7015	146.0178
453.8659	151.1983
454.0303	157.2296
454.1947	156.2697
454.3592	150.9799
454.5236	148.2787
454.688	151.8408
454.8524	149.1238
455.0168	148.0836
455.1811	146.0906
455.3455	153.093
455.5099	153.5059
455.6743	151.5324
455.8386	159.3928
456.003	160.8542
456.1673	165.7493
456.3317	162.5158
456.496	157.2011
456.6603	148.6542
456.8246	155.4908
456.989	157.353
457.1533	156.0054
457.3176	155.8735
457.4819	166.4377
457.6462	157.4689
457.8105	165.6327
457.9748	156.0516
458.1391	150.2485
458.3033	153.4431
458.4676	142.3733
458.6319	151.5363
458.7961	157.7608
458.9604	152.9574
459.1246	153.1756
459.2888	156.63
459.4531	155.2078
459.6173	154.3201
459.7815	151.7989
459.9457	152.8407
460.11	152.9221
460.2741	151.2087
460.4384	153.8108
460.6025	157.5036
460.7667	162.5445
460.9309	160.6642
461.0951	165.5624
461.2592	160.5529
461.4234	158.2264
461.5876	157.1691
461.7517	159.6256
461.9159	159.3144
462.08	156.7523
462.2441	161.1033
462.4082	166.1643
462.5724	166.9245
462.7365	164.6467
462.9006	161.2757
463.0647	160.7336
463.2288	164.9158
463.3929	162.5326
463.557	156.9715
463.721	160.7846
463.8851	157.0819
464.0492	161.2787
464.2132	159.991
464.3773	163.0573
464.5414	163.121
464.7054	159.72
464.8694	149.3264
465.0334	155.0129
465.1975	164.4386
465.3615	162.611
465.5255	166.1668
465.6895	163.9469
465.8535	163.237
466.0175	166.2817
466.1815	163.6341
466.3455	162.9227
466.5095	167.5287
466.6734	158.3824
466.8374	160.9047
467.0014	163.7662
467.1653	161.1826
467.3293	165.6913
467.4932	166.4844
467.6571	175.2663
467.8211	172.7538
467.985	164.3368
468.1489	160.6831
468.3128	164.313
468.4767	166.8608
468.6406	171.296
468.8045	168.7965
468.9684	166.1575
469.1323	162.6177
469.2962	171.8126
469.46	171.6767
469.6239	171.9678
469.7878	170.2651
469.9516	156.7861
470.1154	163.2385
470.2793	153.2572
470.4431	153.8121
470.607	156.8733
470.7708	164.028
470.9346	163.5546
471.0984	169.6824
471.2622	171.0716
471.426	168.7026
471.5898	164.5751
471.7536	175.4316
471.9174	176.9757
472.0811	178.2362
472.2449	177.7185
472.4087	181.2613
472.5724	184.0584
472.7362	176.9482
472.8999	170.1148
473.0637	165.1862
473.2274	164.5308
473.3911	171.7887
473.5548	175.225
473.7185	174.6542
473.8822	178.3037
474.0459	178.6942
474.2096	178.1205
474.3733	168.9939
474.537	170.7649
474.7007	176.1674
474.8643	180.8433
475.028	182.7297
475.1917	174.7871
475.3553	169.3737
475.519	174.9775
475.6826	173.3286
475.8463	175.3071
476.0099	174.7128
476.1735	172.7191
476.3371	173.0092
476.5007	168.2383
476.6643	171.2003
476.8279	167.2259
476.9915	171.36
477.1551	182.4193
477.3187	184.8008
477.4823	181.8174
477.6458	178.0644
477.8094	178.6626
477.9729	185.2919
478.1365	175.5564
478.3	176.8325
478.4636	175.57
478.6271	174.7707
478.7906	173.7508
478.9541	175.1604
479.1176	177.6688
479.2812	181.5564
479.4447	186.8253
479.6082	186.2596
479.7716	181.0086
479.9351	177.1368
480.0986	177.3415
480.2621	174.0979
480.4255	179.2245
480.589	177.0859
480.7524	177.1013
480.9159	171.1904
481.0793	177.2256
481.2428	185.356
481.4062	191.5514
481.5696	191.0064
481.733	185.0458
481.8964	186.6632
482.0598	189.4566
482.2232	187.058
482.3866	176.4334
482.55	175.4349
482.7134	178.2408
482.8768	177.1364
483.0401	178.3758
483.2035	181.3186
483.3668	180.4988
483.5302	184.1589
483.6935	180.6382
483.8568	184.5574
484.0202	175.757
484.1835	175.1506
484.3468	176.616
484.5101	177.9838
484.6734	181.5245
484.8367	173.5818
485	177.8552
485.1633	183.2258
485.3266	174.2093
485.4899	172.0948
485.6531	164.7216
485.8164	160.9308
485.9796	150.7303
486.1429	144.1763
486.3061	142.8813
486.4694	155.3268
486.6326	161.4632
486.7958	164.1271
486.959	171.31
487.1223	167.5613
487.2855	162.0701
487.4486	164.7705
487.6118	173.1671
487.775	177.9097
487.9382	181.2024
488.1014	181.6881
488.2646	187.6645
488.4277	181.5382
488.5909	178.9495
488.754	181.2188
488.9171	173.0755
489.0803	169.4199
489.2434	175.8804
489.4066	180.9051
489.5697	186.8391
489.7328	198.1776
489.8959	192.2595
490.059	187.6502
490.2221	185.1196
490.3852	185.0704
490.5482	194.3643
490.7113	200.4021
490.8744	186.4586
491.0374	181.6712
491.2005	181.6771
491.3636	183.0842
491.5266	189.4606
491.6896	195.4542
491.8527	174.4929
492.0157	168.6317
492.1787	164.7493
492.3417	165.1154
492.5047	175.9367
492.6677	178.0863
492.8307	187.5786
492.9937	201.0655
493.1567	197.1406
493.3196	192.5954
493.4826	193.5479
493.6456	182.496
493.8085	190.8726
493.9715	190.9565
494.1344	181.4523
494.2974	184.2289
494.4603	198.6751
494.6232	196.9211
494.7861	195.3281
494.949	201.6217
495.1119	201.502
495.2748	196.4705
495.4377	188.2174
495.6006	179.3858
495.7635	174.8344
495.9264	180.5928
496.0892	182.9031
496.2521	193.031
496.4149	198.7689
496.5778	199.9448
496.7407	197.2018
496.9035	189.0197
497.0663	194.0305
497.2291	191.1965
497.3919	193.2056
497.5547	201.8188
497.7176	203.5892
497.8804	190.9408
498.0432	187.6333
498.2059	186.8434
498.3687	178.1278
498.5315	177.9659
498.6942	187.3766
498.857	195.5105
499.0198	195.8204
499.1825	196.6021
499.3452	190.1886
499.508	193.6774
499.6707	198.8177
499.8334	198.0822
499.9962	190.6994
500.1589	191.3719
500.3216	193.197
500.4843	187.4085
500.6469	181.6235
500.8096	179.9153
500.9723	193.9939
501.135	197.0058
501.2976	193.494
501.4603	191.6458
501.623	186.9475
501.7856	178.9684
501.9482	191.5618
502.1109	192.8631
502.2735	190.9192
502.4361	194.3705
502.5987	199.5579
502.7614	199.589
502.924	194.6963
503.0865	195.3619
503.2491	197.6775
503.4117	205.9471
503.5743	199.8271
503.7368	190.8113
503.8994	187.7866
504.062	189.4475
504.2245	187.8493
504.3871	192.8649
504.5496	198.1421
504.7121	206.2023
504.8746	199.5798
505.0372	197.4727
505.1997	197.7582
505.3622	200.2882
505.5247	206.917
505.6872	205.6298
505.8497	201.8586
506.0121	207.9131
506.1746	208.9958
506.3371	213.4372
506.4995	211.7363
506.662	208.6577
506.8244	198.059
506.9869	202.4869
507.1493	205.5526
507.3117	199.8565
507.4742	196.1065
507.6366	206.9761
507.799	206.1446
507.9614	197.8191
508.1238	194.2272
508.2862	196.5811
508.4485	198.4854
508.6109	208.0989
508.7733	203.0507
508.9357	201.9811
509.098	210.198
509.2604	210.1196
509.4227	213.5123
509.5851	214.1846
509.7474	203.1527
509.9097	200.9639
510.072	197.5449
510.2343	201.1433
510.3966	205.4412
510.5589	209.019
510.7212	197.9286
510.8835	199.4872
511.0458	204.4567
511.2081	206.4743
511.3703	213.7283
511.5326	213.9898
511.6949	212.1454
511.8571	215.8036
512.0193	209.6806
512.1816	207.4958
512.3438	202.6951
512.506	202.2093
512.6682	199.591
512.8304	201.8701
512.9926	196.1727
513.1548	195.961
513.317	197.5124
513.4792	198.7247
513.6414	196.5148
513.8035	199.6696
513.9657	189.945
514.1279	190.6321
514.29	201.0594
514.4521	193.182
514.6143	191.667
514.7764	197.7931
514.9385	204.8491
515.1006	198.0156
515.2628	189.3714
515.4249	191.4248
515.587	206.1549
515.7491	205.1612
515.9111	199.3544
516.0732	201.3118
516.2353	200.3844
