SPECTRUM DATA FILE
SpectrumCount:	1
PixelCount:	3648
UserName:	ToughBook User
SampleName:	
LightSource:	
Comments:	
DeviceName:	Qwave
DeviceManufacturer:	Broadcom
DeviceSerialNo:	11311

Name:	last spectrum
Date:	2024-05-02T15:03:32.4639299+02:00
ExposureTime:	0.02
TemporalAvg:	1
IntensityUnit:	normalizedCounts
CCDLoadLevel:	0.04367566
Temperature:	29.23276
DiagramColor:	200
ProcessingSteps:	335

Wavelength [nm]	Intensity1
334.421	10.21106
334.5891	13.74606
334.7573	12.30497
334.9254	9.769002
335.0935	12.84793
335.2616	15.82712
335.4297	11.11971
335.5978	10.14095
335.7659	12.08593
335.934	14.32029
336.1021	8.880267
336.2701	5.607115
336.4382	13.05224
336.6063	15.34502
336.7744	15.01836
336.9424	10.91914
337.1105	8.639476
337.2785	11.36546
337.4466	14.81515
337.6146	11.64824
337.7827	10.73484
337.9507	7.13246
338.1187	11.09872
338.2867	12.23509
338.4548	12.4116
338.6228	14.26883
338.7908	11.18766
338.9588	12.25578
339.1268	13.7971
339.2948	11.75976
339.4628	9.792725
339.6308	6.677319
339.7988	13.15367
339.9667	12.61272
340.1347	13.10641
340.3027	9.541961
340.4707	12.50964
340.6386	9.675808
340.8066	11.78277
340.9745	10.00981
341.1425	11.21344
341.3104	13.44015
341.4784	8.056712
341.6463	6.990686
341.8142	14.58436
341.9821	12.06719
342.1501	12.76252
342.318	10.29187
342.4859	12.80419
342.6538	14.40957
342.8217	11.65365
342.9896	12.20439
343.1575	10.40909
343.3254	12.20318
343.4933	13.96472
343.6612	10.67974
343.829	11.78384
343.9969	10.10516
344.1648	16.49057
344.3326	16.00624
344.5005	10.75918
344.6683	9.97032
344.8362	11.80246
345.004	12.22283
345.1719	11.18771
345.3397	9.423993
345.5075	11.12537
345.6754	13.52749
345.8432	14.55421
346.011	11.05497
346.1788	6.46667
346.3466	12.42357
346.5144	12.15151
346.6822	11.93757
346.85	18.374
347.0178	12.17111
347.1856	13.04189
347.3534	13.74652
347.5211	15.32017
347.6889	10.80336
347.8567	11.58469
348.0244	13.55446
348.1922	11.73768
348.3599	16.03319
348.5277	15.46978
348.6954	14.23474
348.8632	7.170313
349.0309	10.05878
349.1986	11.33579
349.3663	10.60962
349.5341	9.614957
349.7018	9.819859
349.8695	12.50268
350.0372	9.004417
350.2049	12.41555
350.3726	16.07739
350.5403	13.20743
350.7079	12.34646
350.8756	13.59665
351.0433	11.83504
351.211	11.0985
351.3786	13.76819
351.5463	13.53267
351.714	14.06201
351.8816	13.71028
352.0493	13.91357
352.2169	14.30206
352.3846	10.29044
352.5522	8.44916
352.7198	13.6926
352.8875	16.59291
353.0551	17.74926
353.2227	17.89786
353.3903	17.8294
353.5579	18.46325
353.7255	13.88311
353.8931	19.6112
354.0607	16.44957
354.2283	17.06611
354.3958	21.74438
354.5634	17.40638
354.731	15.70624
354.8986	20.2042
355.0661	17.78048
355.2337	19.03632
355.4012	19.06798
355.5688	15.07473
355.7363	12.89156
355.9039	18.14157
356.0714	18.20619
356.239	17.62695
356.4065	20.00629
356.574	11.4094
356.7415	6.55455
356.909	11.74869
357.0765	12.02577
357.244	18.14349
357.4115	14.67748
357.579	14.48159
357.7465	13.44471
357.914	11.90947
358.0815	10.52387
358.249	13.51667
358.4164	14.29736
358.5839	18.45532
358.7513	14.70988
358.9188	14.64716
359.0862	10.76913
359.2537	11.73992
359.4211	17.20444
359.5886	16.35623
359.756	19.25434
359.9234	17.6026
360.0909	16.51592
360.2583	19.77262
360.4257	14.97791
360.5931	15.16396
360.7605	13.87545
360.9279	13.15264
361.0953	15.17525
361.2627	17.25572
361.4301	17.45724
361.5974	14.50087
361.7648	16.12479
361.9322	11.93026
362.0995	14.55554
362.2669	16.48108
362.4343	18.49237
362.6016	16.71013
362.769	17.64405
362.9363	21.87367
363.1036	18.22876
363.271	14.12265
363.4383	18.1277
363.6056	21.59827
363.7729	20.97967
363.9402	20.37764
364.1075	18.21911
364.2748	21.42192
364.4421	21.54936
364.6094	15.45702
364.7767	18.73256
364.944	17.31929
365.1113	14.90048
365.2786	23.48867
365.4458	25.55874
365.6131	16.49332
365.7803	19.64012
365.9476	17.58154
366.1148	16.24908
366.2821	19.55948
366.4493	20.24607
366.6166	20.48063
366.7838	22.09926
366.951	16.97838
367.1182	19.55238
367.2855	19.57676
367.4527	19.15472
367.6199	22.63263
367.7871	17.09329
367.9543	19.46152
368.1215	18.54058
368.2886	20.4959
368.4558	23.31488
368.623	21.14497
368.7902	18.55463
368.9573	19.11877
369.1245	19.01785
369.2917	21.25328
369.4588	20.59636
369.6259	24.51914
369.7931	19.61832
369.9602	25.03824
370.1274	24.20749
370.2945	24.81611
370.4616	21.8635
370.6287	20.48834
370.7958	23.35746
370.963	22.09935
371.1301	26.31969
371.2971	23.47335
371.4643	20.08144
371.6313	22.20551
371.7984	19.46285
371.9655	19.93262
372.1326	18.97095
372.2997	16.89432
372.4667	17.71738
372.6338	20.4127
372.8008	19.98506
372.9679	17.9853
373.1349	18.24967
373.3019	22.97308
373.469	19.50199
373.636	20.45174
373.803	20.90885
373.9701	20.98718
374.1371	20.60227
374.3041	19.37167
374.4711	22.53392
374.6381	20.47763
374.8051	12.61198
374.9721	18.70599
375.1391	24.94815
375.3061	27.05354
375.473	22.18197
375.64	23.58226
375.8069	24.74405
375.9739	23.4044
376.1409	21.19945
376.3078	21.9175
376.4748	20.26763
376.6417	19.92706
376.8087	21.77293
376.9756	27.14857
377.1425	23.30939
377.3094	25.80069
377.4763	28.90073
377.6432	29.60502
377.8102	26.82344
377.9771	29.36503
378.144	31.74379
378.3109	31.00537
378.4777	26.8623
378.6446	25.25452
378.8115	25.37588
378.9784	22.41283
379.1452	22.64037
379.3121	22.15756
379.4789	23.7231
379.6458	19.78361
379.8127	20.0481
379.9795	22.98669
380.1463	25.81243
380.3131	27.34636
380.48	28.1007
380.6468	27.59957
380.8136	27.82833
380.9804	28.84882
381.1472	26.81626
381.314	23.03594
381.4808	21.75439
381.6476	24.36692
381.8144	23.44085
381.9812	19.52568
382.148	21.03636
382.3147	24.90522
382.4815	20.4639
382.6483	20.44944
382.815	18.22547
382.9818	19.48079
383.1485	22.10698
383.3153	19.66349
383.482	19.99954
383.6487	21.44179
383.8155	23.90285
383.9822	24.61092
384.1489	25.26283
384.3156	25.20908
384.4823	23.50552
384.649	27.60248
384.8157	28.07509
384.9824	26.56726
385.1491	30.09406
385.3158	27.6642
385.4825	28.02783
385.6491	26.72429
385.8158	27.74771
385.9825	28.8559
386.1491	30.10505
386.3157	31.67806
386.4824	30.24871
386.649	30.01911
386.8157	25.93848
386.9823	26.63721
387.1489	26.53505
387.3156	24.87532
387.4821	27.5606
387.6488	30.99153
387.8154	27.81141
387.982	27.90918
388.1486	29.6381
388.3152	24.72895
388.4818	25.35953
388.6483	25.4435
388.8149	28.67199
388.9815	27.99481
389.148	30.45643
389.3146	27.86528
389.4811	29.90432
389.6477	33.1419
389.8142	32.28909
389.9808	31.56105
390.1473	32.45061
390.3138	31.49534
390.4804	31.94034
390.6469	36.5713
390.8134	32.63329
390.9799	29.43064
391.1464	35.02864
391.3129	34.00372
391.4794	39.53148
391.6459	33.75572
391.8124	34.44213
391.9789	34.68562
392.1453	32.1382
392.3118	31.22514
392.4782	30.39071
392.6447	33.29316
392.8112	27.05247
392.9776	20.00285
393.144	18.42493
393.3105	21.66162
393.4769	22.24936
393.6433	24.02187
393.8098	20.20258
393.9762	24.1913
394.1426	28.14329
394.309	35.05909
394.4754	32.33889
394.6418	34.09744
394.8082	40.68441
394.9746	38.46553
395.141	38.45047
395.3073	39.74982
395.4737	39.17526
395.64	37.23756
395.8064	40.68328
395.9728	39.4562
396.1391	38.21088
396.3055	28.9144
396.4718	30.19838
396.6381	25.80696
396.8045	18.11692
396.9708	21.17899
397.1371	18.5323
397.3034	26.05943
397.4697	36.40243
397.636	38.73505
397.8023	39.49652
397.9686	36.87936
398.1349	44.92639
398.3012	50.52351
398.4675	47.07849
398.6337	48.36081
398.8	51.7264
398.9662	52.76011
399.1325	52.09245
399.2988	47.1687
399.465	48.68465
399.6313	51.28448
399.7975	54.06902
399.9637	50.74302
400.1299	52.38543
400.2961	50.48402
400.4624	49.00187
400.6286	49.18712
400.7948	49.21466
400.961	50.72657
401.1272	53.44516
401.2934	56.00461
401.4595	54.1132
401.6257	56.28383
401.7919	58.40615
401.9581	53.0477
402.1242	51.30914
402.2904	54.36472
402.4565	50.12038
402.6227	53.07943
402.7888	52.359
402.955	51.78979
403.1211	51.48304
403.2872	47.04282
403.4533	50.15782
403.6194	55.38177
403.7856	54.11871
403.9517	59.75318
404.1177	54.90518
404.2838	51.86362
404.4499	52.16003
404.616	49.28691
404.7821	52.33705
404.9482	53.39592
405.1142	56.70125
405.2803	55.73035
405.4464	55.49132
405.6124	53.8218
405.7784	49.51625
405.9445	50.05983
406.1105	55.3137
406.2766	55.37177
406.4426	49.22092
406.6086	47.63309
406.7746	55.38924
406.9406	58.03337
407.1066	56.14919
407.2726	53.19784
407.4386	56.18718
407.6046	55.75137
407.7706	60.83949
407.9366	59.36317
408.1025	57.7109
408.2685	62.46328
408.4344	64.61843
408.6004	61.15206
408.7664	59.93544
408.9323	56.62841
409.0983	65.77436
409.2642	69.4757
409.4301	65.24496
409.596	65.8714
409.762	56.98056
409.9279	58.39647
410.0938	59.20878
410.2597	50.60987
410.4256	50.50242
410.5915	57.30128
410.7574	60.5646
410.9232	66.95694
411.0891	61.16408
411.255	61.46891
411.4209	65.25594
411.5867	74.69512
411.7526	71.22456
411.9184	66.71449
412.0843	64.0241
412.2501	69.82304
412.4159	72.05179
412.5818	62.07465
412.7476	66.31906
412.9134	65.71754
413.0792	67.81779
413.245	62.03312
413.4108	63.6022
413.5766	61.68066
413.7424	64.24678
413.9082	69.50974
414.074	69.4603
414.2397	66.63219
414.4055	66.23147
414.5713	61.34768
414.737	67.12955
414.9028	73.89063
415.0685	71.4594
415.2343	66.96302
415.4	65.05108
415.5658	60.602
415.7315	62.59091
415.8972	63.0246
416.0629	68.57694
416.2286	74.31698
416.3943	70.41449
416.56	74.49986
416.7257	69.32285
416.8914	70.80981
417.0571	72.12827
417.2228	66.3773
417.3884	64.11734
417.5541	67.84527
417.7198	67.32075
417.8854	72.03558
418.0511	70.88419
418.2167	74.64059
418.3824	70.65132
418.548	67.27534
418.7136	64.9866
418.8792	63.37552
419.0449	74.19679
419.2105	76.24837
419.3761	79.69322
419.5417	73.4845
419.7073	71.61378
419.8729	67.55312
420.0385	64.06496
420.204	69.06039
420.3696	74.57001
420.5352	74.66531
420.7007	74.77168
420.8663	74.52855
421.0319	75.18977
421.1974	80.73125
421.3629	78.30194
421.5285	81.36863
421.694	74.98466
421.8595	76.59271
422.0251	81.65931
422.1906	80.67422
422.3561	78.70053
422.5216	70.12836
422.6871	65.31488
422.8526	69.25103
423.0181	69.69849
423.1835	83.4697
423.349	82.21447
423.5145	78.3886
423.68	73.41227
423.8454	76.99374
424.0109	73.20263
424.1763	77.48814
424.3418	85.73136
424.5072	83.38607
424.6726	81.10152
424.838	84.81303
425.0035	78.14782
425.1689	76.33336
425.3343	79.98347
425.4997	79.69658
425.6651	80.86526
425.8305	82.22932
425.9959	71.16855
426.1613	72.86008
426.3267	79.70062
426.492	82.41297
426.6574	82.46307
426.8228	87.26192
426.9881	77.76685
427.1534	71.80253
427.3188	67.658
427.4841	74.07314
427.6495	80.75546
427.8148	84.31755
427.9801	80.37662
428.1454	81.67101
428.3107	81.73415
428.476	80.08491
428.6414	77.40936
428.8066	79.24612
428.9719	75.50638
429.1372	73.44534
429.3025	81.20095
429.4678	76.16866
429.633	75.91094
429.7983	70.45442
429.9636	61.7265
430.1288	62.83722
430.294	57.10157
430.4593	63.50965
430.6245	63.34039
430.7897	63.931
430.955	64.57404
431.1202	64.11521
431.2854	70.59208
431.4506	79.08208
431.6158	89.28614
431.781	98.86137
431.9462	96.83087
432.1114	90.88619
432.2766	87.21957
432.4417	83.19623
432.6069	74.18899
432.772	83.22482
432.9372	90.08208
433.1024	95.32021
433.2675	101.6435
433.4326	99.09529
433.5977	96.81092
433.7629	87.26556
433.928	74.65868
434.0931	74.49214
434.2582	82.63699
434.4233	91.33868
434.5884	96.84742
434.7535	95.48181
434.9186	97.06165
435.0837	97.10083
435.2488	92.31738
435.4138	94.19643
435.5789	94.02754
435.744	95.36944
435.909	97.51579
436.0741	98.10396
436.2391	100.0653
436.4042	105.1249
436.5692	104.8148
436.7342	98.82576
436.8992	99.5332
437.0643	102.0603
437.2293	98.29713
437.3943	100.2486
437.5593	101.9197
437.7243	101.4663
437.8893	107.8696
438.0542	107.9304
438.2192	97.0117
438.3842	88.0091
438.5491	82.54039
438.7141	87.07368
438.8791	98.8602
439.044	100.7542
439.209	102.754
439.3739	101.9118
439.5388	103.7996
439.7037	107.8255
439.8687	106.4672
440.0336	108.505
440.1985	105.401
440.3634	100.9696
440.5283	100.492
440.6932	100.7708
440.8581	109.0692
441.0229	109.7445
441.1878	113.4526
441.3527	112.978
441.5175	111.577
441.6824	107.0184
441.8472	108.6672
442.0121	117.4024
442.1769	123.4924
442.3418	121.3572
442.5066	113.248
442.6714	119.0339
442.8362	118.1085
443.001	116.5001
443.1659	113.5492
443.3307	108.8381
443.4955	110.3357
443.6602	110.3481
443.825	117.3503
443.9898	123.7153
444.1546	119.8792
444.3193	116.0667
444.4841	120.4429
444.6488	121.7171
444.8136	120.3465
444.9783	117.1533
445.1431	120.2002
445.3078	115.2533
445.4725	107.844
445.6372	107.7908
445.802	114.0584
445.9667	113.7712
446.1314	105.7993
446.2961	114.6485
446.4608	116.9446
446.6255	117.8178
446.7901	116.3168
446.9548	119.6063
447.1195	118.2605
447.2841	120.6142
447.4488	131.1471
447.6134	130.5826
447.7781	130.0413
447.9427	125.9087
448.1074	121.4619
448.272	120.5525
448.4366	124.7605
448.6012	132.5045
448.7658	132.525
448.9305	129.0869
449.095	127.9842
449.2596	129.6207
449.4242	120.9156
449.5888	126.0644
449.7534	132.4012
449.9179	131.0387
450.0825	133.0734
450.2471	136.0489
450.4116	140.621
450.5762	142.4006
450.7407	141.4472
450.9052	141.2331
451.0698	138.7791
451.2343	136.6582
451.3988	137.715
451.5633	138.0278
451.7278	129.3121
451.8923	133.8956
452.0568	138.5263
452.2213	137.4624
452.3858	140.2939
452.5503	133.8161
452.7148	123.562
452.8792	116.8545
453.0437	120.3229
453.2081	127.3088
453.3726	125.9772
453.537	125.374
453.7015	134.8108
453.8659	139.0293
454.0303	143.5296
454.1947	140.4209
454.3592	138.5975
454.5236	139.7643
454.688	136.172
454.8524	134.2787
455.0168	132.3935
455.1811	128.6734
455.3455	140.118
455.5099	136.3713
455.6743	133.7235
455.8386	139.9294
456.003	141.4682
456.1673	148.6554
456.3317	138.2989
456.496	134.3263
456.6603	143.9643
456.8246	140.5385
456.989	138.8583
457.1533	143.36
457.3176	142.9706
457.4819	141.4971
457.6462	150.8289
457.8105	141.9003
457.9748	141.2891
458.1391	138.5861
458.3033	135.2639
458.4676	137.9872
458.6319	137.2683
458.7961	140.4084
458.9604	142.4642
459.1246	141.5661
459.2888	135.3667
459.4531	141.7537
459.6173	142.2926
459.7815	135.3421
459.9457	132.4586
460.11	138.349
460.2741	140.6025
460.4384	138.646
460.6025	138.7127
460.7667	141.2277
460.9309	144.9908
461.0951	148.3516
461.2592	145.4478
461.4234	144.6723
461.5876	148.7818
461.7517	151.7574
461.9159	145.8593
462.08	146.6826
462.2441	147.5239
462.4082	146.8297
462.5724	139.6336
462.7365	147.5999
462.9006	153.4227
463.0647	145.055
463.2288	145.346
463.3929	150.1261
463.557	153.6804
463.721	141.4202
463.8851	144.2941
464.0492	143.9843
464.2132	143.8317
464.3773	144.0311
464.5414	139.2169
464.7054	146.2164
464.8694	150.5675
465.0334	138.8615
465.1975	147.1165
465.3615	147.8547
465.5255	149.8933
465.6895	144.9139
465.8535	144.623
466.0175	151.9867
466.1815	153.6608
466.3455	150.0766
466.5095	147.6212
466.6734	140.9468
466.8374	136.3192
467.0014	138.0511
467.1653	140.7166
467.3293	146.1989
467.4932	151.2713
467.6571	153.02
467.8211	145.1664
467.985	144.5332
468.1489	148.3415
468.3128	145.1676
468.4767	158.6559
468.6406	154.1452
468.8045	152.1996
468.9684	148.1476
469.1323	148.642
469.2962	156.1781
469.46	157.9236
469.6239	152.8174
469.7878	150.4537
469.9516	149.9
470.1154	149.1762
470.2793	147.7681
470.4431	147.999
470.607	148.5644
470.7708	149.9224
470.9346	145.3025
471.0984	151.555
471.2622	151.8563
471.426	150.7239
471.5898	150.7155
471.7536	162.4404
471.9174	160.7939
472.0811	160.7923
472.2449	165.075
472.4087	164.8431
472.5724	159.7585
472.7362	153.8703
472.8999	156.3088
473.0637	150.6701
473.2274	158.1859
473.3911	154.0916
473.5548	156.9365
473.7185	155.3734
473.8822	154.8856
474.0459	161.6083
474.2096	159.913
474.3733	154.6173
474.537	159.4196
474.7007	160.1917
474.8643	161.9535
475.028	156.6279
475.1917	157.4129
475.3553	154.1109
475.519	156.1221
475.6826	156.3711
475.8463	155.5505
476.0099	160.0961
476.1735	162.8581
476.3371	157.1408
476.5007	152.2224
476.6643	154.4179
476.8279	155.3522
476.9915	159.0561
477.1551	164.6696
477.3187	165.9849
477.4823	164.2287
477.6458	162.0956
477.8094	158.9678
477.9729	164.9639
478.1365	165.6989
478.3	163.6985
478.4636	164.5248
478.6271	162.6217
478.7906	155.8325
478.9541	158.96
479.1176	162.3295
479.2812	169.5356
479.4447	169.2667
479.6082	164.4656
479.7716	166.3046
479.9351	163.845
480.0986	165.2556
480.2621	165.9236
480.4255	158.6474
480.589	164.6974
480.7524	160.8482
480.9159	161.0351
481.0793	162.5207
481.2428	167.5556
481.4062	163.6719
481.5696	161.6443
481.733	161.3252
481.8964	165.2693
482.0598	164.7385
482.2232	161.3785
482.3866	157.1525
482.55	162.4289
482.7134	163.8408
482.8768	165.3997
483.0401	159.1715
483.2035	159.8804
483.3668	164.4076
483.5302	166.1778
483.6935	159.9912
483.8568	159.1744
484.0202	161.1281
484.1835	158.9786
484.3468	171.4708
484.5101	167.9709
484.6734	154.33
484.8367	158.7977
485	168.7421
485.1633	161.3264
485.3266	155.8891
485.4899	155.4274
485.6531	148.4691
485.8164	147.3288
485.9796	133.9472
486.1429	127.0751
486.3061	127.2761
486.4694	138.2938
486.6326	148.2011
486.7958	153.7661
486.959	153.6651
487.1223	151.3667
487.2855	149.6865
487.4486	161.1053
487.6118	161.7087
487.775	168.8983
487.9382	168.3569
488.1014	165.8705
488.2646	164.3394
488.4277	167.2487
488.5909	158.6635
488.754	156.533
488.9171	150.4452
489.0803	151.6477
489.2434	152.4268
489.4066	161.7638
489.5697	172.3605
489.7328	176.7521
489.8959	172.6549
490.059	170.0341
490.2221	165.1236
490.3852	158.5336
490.5482	166.5289
490.7113	160.3349
490.8744	167.7699
491.0374	171.4722
491.2005	167.0812
491.3636	162.558
491.5266	165.8902
491.6896	168.8048
491.8527	164.3414
492.0157	164.6529
492.1787	155.9775
492.3417	160.54
492.5047	169.5589
492.6677	177.5376
492.8307	181.5194
492.9937	169.4824
493.1567	174.9228
493.3196	171.9902
493.4826	172.6199
493.6456	168.3344
493.8085	162.6569
493.9715	158.2661
494.1344	164.0981
494.2974	180.3652
494.4603	185.0924
494.6232	185.7635
494.7861	179.313
494.949	180.9611
495.1119	175.614
495.2748	181.9188
495.4377	178.1836
495.6006	170.8955
495.7635	158.1695
495.9264	166.9033
496.0892	169.1729
496.2521	173.6532
496.4149	175.8878
496.5778	179.4334
496.7407	169.0091
496.9035	167.4653
497.0663	180.1391
497.2291	170.7003
497.3919	173.293
497.5547	170.4314
497.7176	178.0543
497.8804	173.8671
498.0432	167.4174
498.2059	165.4816
498.3687	163.7384
498.5315	167.1215
498.6942	164.6994
498.857	172.888
499.0198	175.7677
499.1825	175.8164
499.3452	174.6678
499.508	176.253
499.6707	171.8962
499.8334	176.5802
499.9962	170.8546
500.1589	168.7714
500.3216	167.8925
500.4843	168.6865
500.6469	162.3654
500.8096	166.0933
500.9723	175.1773
501.135	175.3246
501.2976	174.8311
501.4603	171.6964
501.623	172.5987
501.7856	160.1303
501.9482	169.1734
502.1109	165.013
502.2735	166.2888
502.4361	171.0193
502.5987	174.8639
502.7614	177.2166
502.924	169.9063
503.0865	184.3868
503.2491	186.2186
503.4117	179.5917
503.5743	183.138
503.7368	177.0013
503.8994	170.503
504.062	168.8849
504.2245	167.7975
504.3871	175.2131
504.5496	181.905
504.7121	189.4851
504.8746	187.65
505.0372	185.7219
505.1997	185.1772
505.3622	177.1201
505.5247	184.3022
505.6872	188.6888
505.8497	186.0079
506.0121	189.1985
506.1746	186.3691
506.3371	188.7165
506.4995	186.0473
506.662	181.861
506.8244	179.6248
506.9869	184.2807
507.1493	188.0901
507.3117	190.3963
507.4742	188.5859
507.6366	187.8185
507.799	184.2111
507.9614	182.6001
508.1238	178.692
508.2862	179.3062
508.4485	179.9829
508.6109	183.9944
508.7733	189.8876
508.9357	182.4441
509.098	185.3555
509.2604	188.0479
509.4227	185.8115
509.5851	182.5656
509.7474	185.0366
509.9097	184.2627
510.072	183.6922
510.2343	180.9287
510.3966	180.3956
510.5589	183.3369
510.7212	180.9619
510.8835	179.9506
511.0458	175.4292
511.2081	182.9076
511.3703	178.9099
511.5326	188.53
511.6949	193.3478
511.8571	197.8573
512.0193	192.7311
512.1816	186.5966
512.3438	181.616
512.506	179.2947
512.6682	172.1169
512.8304	179.745
512.9926	178.02
513.1548	175.7672
513.317	183.9027
513.4792	177.3875
513.6414	175.5275
513.8035	175.3765
513.9657	168.035
514.1279	168.0498
514.29	176.4193
514.4521	179.1251
514.6143	180.7921
514.7764	174.5801
514.9385	178.6361
515.1006	176.8059
515.2628	184.908
515.4249	175.3564
515.587	182.9184
515.7491	183.9371
515.9111	184.6116
516.0732	183.196
516.2353	183.2685
516.3973	176.737
