SPECTRUM DATA FILE
SpectrumCount:	1
PixelCount:	3648
UserName:	ToughBook User
SampleName:	
LightSource:	
Comments:	
DeviceName:	Qwave
DeviceManufacturer:	Broadcom
DeviceSerialNo:	11311

Name:	last spectrum
Date:	2024-05-02T15:03:43.3219511+02:00
ExposureTime:	0.02
TemporalAvg:	1
IntensityUnit:	normalizedCounts
CCDLoadLevel:	0.04523467
Temperature:	29.23276
DiagramColor:	200
ProcessingSteps:	335

Wavelength [nm]	Intensity1
334.421	11.0366
334.5891	12.41287
334.7573	12.16879
334.9254	8.586399
335.0935	7.752152
335.2616	9.17261
335.4297	14.02517
335.5978	14.49274
335.7659	14.52666
335.934	13.54893
336.1021	11.75847
336.2701	8.712403
336.4382	16.86936
336.6063	12.33259
336.7744	14.31046
336.9424	12.6736
337.1105	13.06944
337.2785	12.25394
337.4466	8.179456
337.6146	14.98156
337.7827	10.69561
337.9507	7.244786
338.1187	7.037628
338.2867	8.773372
338.4548	10.98542
338.6228	11.42443
338.7908	11.45468
338.9588	9.397089
339.1268	7.6439
339.2948	8.013126
339.4628	13.33507
339.6308	14.31222
339.7988	16.95973
339.9667	13.91846
340.1347	12.51961
340.3027	13.07572
340.4707	11.903
340.6386	13.43469
340.8066	11.85717
340.9745	10.06386
341.1425	9.309455
341.3104	14.19735
341.4784	11.26299
341.6463	7.857347
341.8142	13.61682
341.9821	9.146881
342.1501	9.451276
342.318	12.52832
342.4859	11.89991
342.6538	10.80389
342.8217	11.83049
342.9896	12.48357
343.1575	9.492849
343.3254	12.34464
343.4933	13.519
343.6612	12.59662
343.829	11.75332
343.9969	14.84248
344.1648	12.03492
344.3326	6.624733
344.5005	8.67005
344.6683	9.653144
344.8362	14.18629
345.004	13.9526
345.1719	15.65529
345.3397	14.72155
345.5075	9.952872
345.6754	7.988337
345.8432	14.85178
346.011	12.90151
346.1788	12.02789
346.3466	10.27782
346.5144	14.19127
346.6822	14.63369
346.85	14.07801
347.0178	8.697168
347.1856	8.636209
347.3534	8.571066
347.5211	12.15916
347.6889	11.86389
347.8567	8.348899
348.0244	10.79299
348.1922	13.80882
348.3599	14.74823
348.5277	14.03972
348.6954	13.04044
348.8632	13.39727
349.0309	11.42556
349.1986	12.27209
349.3663	10.52232
349.5341	8.035879
349.7018	12.08267
349.8695	12.84419
350.0372	17.89993
350.2049	15.80634
350.3726	12.42594
350.5403	12.24502
350.7079	14.93566
350.8756	11.94696
351.0433	13.51783
351.211	11.00144
351.3786	15.11452
351.5463	17.41894
351.714	13.6664
351.8816	13.82833
352.0493	12.16536
352.2169	14.58702
352.3846	19.75487
352.5522	19.28356
352.7198	14.26142
352.8875	17.87703
353.0551	14.99896
353.2227	13.62317
353.3903	14.36824
353.5579	10.31816
353.7255	9.98033
353.8931	10.28786
354.0607	14.57601
354.2283	14.59748
354.3958	16.36107
354.5634	17.59032
354.731	14.6432
354.8986	14.81691
355.0661	12.17391
355.2337	15.40414
355.4012	16.76338
355.5688	19.53219
355.7363	16.74272
355.9039	14.16656
356.0714	17.58907
356.239	19.72761
356.4065	13.04423
356.574	16.50562
356.7415	14.77959
356.909	13.90838
357.0765	15.82157
357.244	14.2227
357.4115	15.06431
357.579	17.35011
357.7465	9.552339
357.914	11.90608
358.0815	12.69888
358.249	13.42229
358.4164	13.11724
358.5839	13.79092
358.7513	14.87839
358.9188	15.27525
359.0862	13.10632
359.2537	12.42595
359.4211	17.20892
359.5886	19.19583
359.756	18.40592
359.9234	16.61829
360.0909	18.10985
360.2583	19.27638
360.4257	15.41455
360.5931	12.95993
360.7605	18.81083
360.9279	18.29074
361.0953	14.77294
361.2627	18.42604
361.4301	17.44029
361.5974	16.08257
361.7648	16.18124
361.9322	13.79534
362.0995	18.47619
362.2669	16.40733
362.4343	22.57603
362.6016	19.74226
362.769	19.7711
362.9363	21.10807
363.1036	18.39861
363.271	17.30653
363.4383	20.68164
363.6056	15.8147
363.7729	18.36433
363.9402	18.67624
364.1075	17.76578
364.2748	19.23583
364.4421	18.01777
364.6094	18.19027
364.7767	18.9781
364.944	14.93407
365.1113	14.65582
365.2786	17.94647
365.4458	19.1207
365.6131	19.42856
365.7803	20.028
365.9476	22.70325
366.1148	18.6247
366.2821	20.35636
366.4493	16.83403
366.6166	17.30038
366.7838	17.31647
366.951	19.02519
367.1182	18.07057
367.2855	17.11714
367.4527	19.60153
367.6199	19.65448
367.7871	17.48189
367.9543	17.33571
368.1215	19.36642
368.2886	18.7424
368.4558	15.83541
368.623	17.45078
368.7902	22.91859
368.9573	20.39962
369.1245	22.71459
369.2917	20.92577
369.4588	20.37758
369.6259	25.24614
369.7931	19.70346
369.9602	21.98601
370.1274	20.26776
370.2945	20.96488
370.4616	18.33559
370.6287	16.29391
370.7958	21.5169
370.963	23.62124
371.1301	22.79586
371.2971	24.90384
371.4643	26.65793
371.6313	19.3004
371.7984	17.91595
371.9655	16.57726
372.1326	20.67102
372.2997	20.33602
372.4667	22.76165
372.6338	21.01104
372.8008	14.57414
372.9679	20.87934
373.1349	20.41181
373.3019	16.05593
373.469	21.97099
373.636	14.73208
373.803	22.78146
373.9701	23.18607
374.1371	22.07051
374.3041	21.98296
374.4711	22.62133
374.6381	23.31934
374.8051	17.45785
374.9721	21.74232
375.1391	21.00767
375.3061	22.71516
375.473	22.27353
375.64	22.5147
375.8069	23.90183
375.9739	25.68282
376.1409	27.71711
376.3078	23.33731
376.4748	24.2984
376.6417	20.01165
376.8087	18.6002
376.9756	23.16947
377.1425	23.47543
377.3094	21.97952
377.4763	23.68935
377.6432	25.81161
377.8102	26.6554
377.9771	26.97415
378.144	26.86254
378.3109	27.25181
378.4777	26.96165
378.6446	29.78141
378.8115	22.88449
378.9784	21.17105
379.1452	22.89829
379.3121	21.39474
379.4789	21.1195
379.6458	23.78316
379.8127	23.75926
379.9795	28.22388
380.1463	27.34167
380.3131	27.58533
380.48	28.0524
380.6468	24.60459
380.8136	25.55146
380.9804	27.65577
381.1472	26.26327
381.314	27.27721
381.4808	24.22559
381.6476	23.67687
381.8144	23.31607
381.9812	22.93067
382.148	22.8887
382.3147	22.57178
382.4815	19.43109
382.6483	18.34238
382.815	21.13856
382.9818	19.91725
383.1485	23.44204
383.3153	19.49579
383.482	22.7101
383.6487	22.8009
383.8155	23.48342
383.9822	19.24881
384.1489	20.85941
384.3156	25.00042
384.4823	27.3819
384.649	31.09426
384.8157	29.0775
384.9824	25.14848
385.1491	27.7255
385.3158	27.14119
385.4825	25.33846
385.6491	27.58679
385.8158	29.76395
385.9825	25.23777
386.1491	26.59603
386.3157	30.3886
386.4824	29.60805
386.649	28.145
386.8157	27.24887
386.9823	24.14215
387.1489	23.31744
387.3156	25.11077
387.4821	28.6335
387.6488	35.29025
387.8154	29.88027
387.982	30.24403
388.1486	24.46867
388.3152	21.28106
388.4818	24.41582
388.6483	33.94428
388.8149	32.84164
388.9815	32.76939
389.148	31.32032
389.3146	31.2903
389.4811	35.49496
389.6477	31.42919
389.8142	25.51259
389.9808	29.09347
390.1473	31.43358
390.3138	32.03964
390.4804	34.42554
390.6469	35.33371
390.8134	32.81082
390.9799	37.79772
391.1464	42.01203
391.3129	38.39896
391.4794	39.59943
391.6459	31.16586
391.8124	30.45692
391.9789	32.48507
392.1453	29.19423
392.3118	30.33448
392.4782	27.81633
392.6447	30.16443
392.8112	29.66033
392.9776	24.88298
393.144	22.20622
393.3105	17.74067
393.4769	16.87546
393.6433	19.42692
393.8098	21.14433
393.9762	24.6636
394.1426	34.0892
394.309	35.46839
394.4754	31.74641
394.6418	37.7288
394.8082	36.21154
394.9746	36.17
395.141	43.13424
395.3073	41.73426
395.4737	37.43499
395.64	38.74736
395.8064	39.40746
395.9728	40.5688
396.1391	38.70882
396.3055	33.6437
396.4718	26.33169
396.6381	23.5156
396.8045	17.47719
396.9708	26.02977
397.1371	25.35432
397.3034	27.29318
397.4697	37.32465
397.636	33.15916
397.8023	38.71919
397.9686	47.99076
398.1349	44.04419
398.3012	44.76245
398.4675	46.94041
398.6337	48.01046
398.8	49.60779
398.9662	46.18225
399.1325	43.47716
399.2988	48.40199
399.465	48.86084
399.6313	48.77112
399.7975	48.28819
399.9637	48.26883
400.1299	49.42715
400.2961	49.79512
400.4624	44.92266
400.6286	47.45226
400.7948	46.00606
400.961	50.10553
401.1272	52.22273
401.2934	51.94051
401.4595	54.08467
401.6257	59.99267
401.7919	61.08791
401.9581	56.78905
402.1242	56.29739
402.2904	53.17459
402.4565	54.48901
402.6227	53.05595
402.7888	56.5919
402.955	56.54995
403.1211	53.22949
403.2872	51.11945
403.4533	55.48328
403.6194	55.87321
403.7856	52.42223
403.9517	50.14803
404.1177	54.23943
404.2838	55.97485
404.4499	51.93406
404.616	47.88174
404.7821	47.44485
404.9482	59.10671
405.1142	61.2512
405.2803	51.93946
405.4464	49.69204
405.6124	53.53077
405.7784	48.07292
405.9445	54.48135
406.1105	51.50723
406.2766	49.85737
406.4426	50.33219
406.6086	49.88948
406.7746	56.62362
406.9406	57.91449
407.1066	61.07275
407.2726	60.36535
407.4386	58.44971
407.6046	53.69846
407.7706	54.4911
407.9366	55.58971
408.1025	59.15928
408.2685	62.33883
408.4344	58.79681
408.6004	56.72565
408.7664	58.49337
408.9323	64.42377
409.0983	62.90889
409.2642	58.92752
409.4301	57.32741
409.596	57.30718
409.762	59.64968
409.9279	58.48352
410.0938	55.23896
410.2597	55.88404
410.4256	53.18516
410.5915	57.27093
410.7574	60.52932
410.9232	60.51849
411.0891	63.85469
411.255	70.68321
411.4209	72.133
411.5867	67.70782
411.7526	67.49971
411.9184	65.61965
412.0843	63.49171
412.2501	67.58616
412.4159	69.37019
412.5818	64.10658
412.7476	66.79601
412.9134	66.82722
413.0792	64.6793
413.245	62.70499
413.4108	65.11283
413.5766	60.32872
413.7424	63.94402
413.9082	70.68517
414.074	68.88827
414.2397	65.89949
414.4055	60.85593
414.5713	66.14923
414.737	64.58355
414.9028	65.3931
415.0685	67.34205
415.2343	61.37411
415.4	63.84082
415.5658	60.64501
415.7315	63.98049
415.8972	66.67285
416.0629	68.4559
416.2286	70.84821
416.3943	71.52856
416.56	74.09959
416.7257	66.57355
416.8914	68.03246
417.0571	68.60749
417.2228	65.40241
417.3884	62.32883
417.5541	58.73977
417.7198	65.99428
417.8854	64.26041
418.0511	68.46623
418.2167	66.91449
418.3824	69.2582
418.548	67.51443
418.7136	68.23917
418.8792	69.76694
419.0449	70.02991
419.2105	72.1045
419.3761	73.69028
419.5417	70.1026
419.7073	66.95883
419.8729	62.11383
420.0385	63.79945
420.204	68.19042
420.3696	69.29607
420.5352	75.57716
420.7007	73.33189
420.8663	77.33371
421.0319	80.6845
421.1974	82.25859
421.3629	84.36676
421.5285	80.40042
421.694	76.45065
421.8595	76.88721
422.0251	79.5954
422.1906	83.20322
422.3561	74.49356
422.5216	68.8182
422.6871	67.34875
422.8526	72.5834
423.0181	77.16328
423.1835	80.94846
423.349	78.10993
423.5145	76.66349
423.68	73.9918
423.8454	75.6559
424.0109	71.48132
424.1763	81.91566
424.3418	82.44164
424.5072	80.48974
424.6726	82.70995
424.838	80.29897
425.0035	78.86378
425.1689	81.5341
425.3343	79.75868
425.4997	83.42802
425.6651	83.17649
425.8305	83.49863
425.9959	78.03901
426.1613	72.41158
426.3267	78.41284
426.492	80.82543
426.6574	86.87316
426.8228	81.36132
426.9881	77.43156
427.1534	74.78236
427.3188	72.43354
427.4841	73.94412
427.6495	75.53553
427.8148	81.04703
427.9801	84.41941
428.1454	83.14211
428.3107	86.93082
428.476	85.37285
428.6414	83.50111
428.8066	76.28313
428.9719	75.14534
429.1372	79.07571
429.3025	83.08396
429.4678	78.52009
429.633	75.08047
429.7983	67.87746
429.9636	60.7112
430.1288	58.12289
430.294	59.95615
430.4593	62.87202
430.6245	65.52055
430.7897	62.2667
430.955	66.9071
431.1202	66.83868
431.2854	69.41907
431.4506	76.51727
431.6158	86.6386
431.781	97.32144
431.9462	102.2219
432.1114	90.84753
432.2766	86.55262
432.4417	76.55581
432.6069	76.50197
432.772	84.26235
432.9372	91.96175
433.1024	95.60067
433.2675	93.99878
433.4326	98.14455
433.5977	91.95428
433.7629	83.05862
433.928	76.18826
434.0931	73.25052
434.2582	79.42947
434.4233	83.10795
434.5884	88.97575
434.7535	93.50273
434.9186	96.91557
435.0837	93.75031
435.2488	95.52583
435.4138	88.66451
435.5789	90.1158
435.744	100.3708
435.909	103.6419
436.0741	101.6333
436.2391	106.2525
436.4042	106.1722
436.5692	105.5715
436.7342	101.6551
436.8992	97.80088
437.0643	97.52559
437.2293	101.3884
437.3943	98.32146
437.5593	101.301
437.7243	102.2226
437.8893	105.2094
438.0542	106.2638
438.2192	90.01895
438.3842	88.98019
438.5491	87.29952
438.7141	90.20513
438.8791	95.04487
439.044	94.67031
439.209	101.806
439.3739	100.0264
439.5388	106.2637
439.7037	105.8406
439.8687	113.1758
440.0336	102.8813
440.1985	100.8102
440.3634	95.64637
440.5283	97.33695
440.6932	98.29292
440.8581	104.7645
441.0229	109.6963
441.1878	108.6315
441.3527	113.34
441.5175	107.471
441.6824	107.2995
441.8472	106.6815
442.0121	112.4241
442.1769	113.1524
442.3418	111.4522
442.5066	111.2581
442.6714	115.7271
442.8362	114.0852
443.001	106.7006
443.1659	117.9016
443.3307	119.6769
443.4955	114.9591
443.6602	112.9412
443.825	117.7175
443.9898	119.8934
444.1546	113.3452
444.3193	113.3455
444.4841	118.7307
444.6488	119.2154
444.8136	128.3027
444.9783	128.5105
445.1431	120.0902
445.3078	115.7366
445.4725	116.4521
445.6372	111.6056
445.802	112.0807
445.9667	108.855
446.1314	110.3457
446.2961	115.0333
446.4608	124.2258
446.6255	121.2746
446.7901	115.4508
446.9548	112.58
447.1195	118.7364
447.2841	124.9786
447.4488	127.752
447.6134	128.125
447.7781	129.8064
447.9427	128.9192
448.1074	126.4686
448.272	124.003
448.4366	121.6854
448.6012	125.0449
448.7658	128.526
448.9305	126.3805
449.095	122.393
449.2596	124.8668
449.4242	127.2165
449.5888	127.1341
449.7534	129.4156
449.9179	135.0362
450.0825	135.4108
450.2471	141.5123
450.4116	141.0282
450.5762	140.4941
450.7407	137.4449
450.9052	139.9162
451.0698	143.2957
451.2343	137.2907
451.3988	135.0777
451.5633	129.0763
451.7278	135.2184
451.8923	139.8496
452.0568	139.628
452.2213	136.3785
452.3858	131.4375
452.5503	128.0916
452.7148	128.1728
452.8792	119.6674
453.0437	121.4978
453.2081	128.4581
453.3726	132.0236
453.537	140.9099
453.7015	141.5096
453.8659	146.0477
454.0303	142.4803
454.1947	139.2722
454.3592	139.7744
454.5236	140.1237
454.688	136.3076
454.8524	133.4322
455.0168	133.597
455.1811	136.5202
455.3455	133.433
455.5099	137.0781
455.6743	136.3839
455.8386	141.0074
456.003	141.6338
456.1673	144.9935
456.3317	138.1672
456.496	136.2966
456.6603	140.7997
456.8246	145.6241
456.989	144.686
457.1533	144.1636
457.3176	147.1832
457.4819	142.2647
457.6462	157.6193
457.8105	144.6028
457.9748	140.0962
458.1391	132.3036
458.3033	136.5162
458.4676	135.6388
458.6319	136.4929
458.7961	139.5432
458.9604	142.7297
459.1246	146.5135
459.2888	134.5004
459.4531	136.5325
459.6173	141.3965
459.7815	139.3349
459.9457	139.599
460.11	148.1633
460.2741	140.0631
460.4384	141.1767
460.6025	153.7242
460.7667	147.0644
460.9309	143.4281
461.0951	142.2843
461.2592	140.0112
461.4234	142.6562
461.5876	150.3288
461.7517	147.8377
461.9159	141.2822
462.08	147.6383
462.2441	153.2782
462.4082	148.7458
462.5724	148.6796
462.7365	142.4873
462.9006	147.6546
463.0647	148.7858
463.2288	141.5419
463.3929	146.3387
463.557	145.4322
463.721	148.068
463.8851	139.2816
464.0492	140.9918
464.2132	146.8935
464.3773	145.4959
464.5414	140.0104
464.7054	141.1707
464.8694	141.3331
465.0334	147.1052
465.1975	143.6543
465.3615	147.0604
465.5255	149.9594
465.6895	147.7749
465.8535	151.4004
466.0175	152.1942
466.1815	146.593
466.3455	147.1953
466.5095	144.071
466.6734	135.4284
466.8374	133.3049
467.0014	132.6192
467.1653	139.1728
467.3293	152.8455
467.4932	151.8062
467.6571	152.1425
467.8211	158.1709
467.985	149.8088
468.1489	149.1442
468.3128	149.055
468.4767	146.2932
468.6406	153.921
468.8045	162.2843
468.9684	149.2308
469.1323	147.629
469.2962	151.6546
469.46	151.7632
469.6239	155.0583
469.7878	157.532
469.9516	152.7552
470.1154	148.7465
470.2793	150.6309
470.4431	145.0461
470.607	145.8266
470.7708	147.5578
470.9346	151.0636
471.0984	151.6079
471.2622	155.4672
471.426	153.8622
471.5898	158.0113
471.7536	164.8693
471.9174	168.1933
472.0811	165.8167
472.2449	163.8538
472.4087	164.2839
472.5724	156.8121
472.7362	159.4626
472.8999	150.4652
473.0637	153.7268
473.2274	153.0021
473.3911	149.946
473.5548	155.9171
473.7185	154.8264
473.8822	159.8156
474.0459	164.2146
474.2096	163.3366
474.3733	157.3166
474.537	159.483
474.7007	163.7831
474.8643	169.4367
475.028	160.1658
475.1917	156.3539
475.3553	155.2753
475.519	153.7099
475.6826	154.2491
475.8463	161.5126
476.0099	163.1249
476.1735	167.0449
476.3371	165.5429
476.5007	160.2266
476.6643	155.2808
476.8279	159.1698
476.9915	158.1931
477.1551	156.1008
477.3187	161.5022
477.4823	160.9467
477.6458	162.8427
477.8094	164.9608
477.9729	162.3135
478.1365	168.3684
478.3	160.8442
478.4636	163.2289
478.6271	160.1022
478.7906	156.5674
478.9541	156.0022
479.1176	155.8047
479.2812	161.2569
479.4447	167.6272
479.6082	163.5123
479.7716	164.2778
479.9351	165.167
480.0986	167.3653
480.2621	162.0885
480.4255	161.9744
480.589	158.6157
480.7524	156.6278
480.9159	158.288
481.0793	162.8659
481.2428	164.1566
481.4062	164.5598
481.5696	169.1793
481.733	172.3969
481.8964	171.2527
482.0598	172.4162
482.2232	167.0271
482.3866	162.7968
482.55	165.3921
482.7134	164.1053
482.8768	162.4252
483.0401	158.7645
483.2035	162.2768
483.3668	164.6422
483.5302	166.3174
483.6935	165.326
483.8568	165.9871
484.0202	159.5665
484.1835	156.1337
484.3468	165.1304
484.5101	167.6507
484.6734	165.0704
484.8367	167.3564
485	160.7315
485.1633	158.2418
485.3266	160.4016
485.4899	158.2203
485.6531	147.7372
485.8164	145.0697
485.9796	138.7937
486.1429	127.9065
486.3061	125.698
486.4694	138.838
486.6326	149.5523
486.7958	160.6753
486.959	159.7084
487.1223	150.195
487.2855	156.2462
487.4486	160.9753
487.6118	158.2268
487.775	162.7824
487.9382	167.9148
488.1014	165.8155
488.2646	167.1548
488.4277	167.704
488.5909	168.6092
488.754	161.2341
488.9171	156.9704
489.0803	152.0823
489.2434	154.6714
489.4066	165.3958
489.5697	176.0208
489.7328	170.7829
489.8959	173.5971
490.059	173.6898
490.2221	169.9552
490.3852	175.5208
490.5482	171.1504
490.7113	170.0442
490.8744	170.5886
491.0374	165.0118
491.2005	169.5872
491.3636	166.3988
491.5266	173.5366
491.6896	162.3376
491.8527	160.2477
492.0157	153.1339
492.1787	152.2634
492.3417	156.4128
492.5047	167.3009
492.6677	172.0439
492.8307	173.1697
492.9937	179.7972
493.1567	175.8053
493.3196	163.9579
493.4826	166.3052
493.6456	173.9142
493.8085	169.7984
493.9715	168.9661
494.1344	171.1235
494.2974	173.9044
494.4603	173.2978
494.6232	175.4001
494.7861	175.0798
494.949	175.114
495.1119	174.8352
495.2748	178.1027
495.4377	177.129
495.6006	172.5977
495.7635	170.3847
495.9264	174.3132
496.0892	172.8608
496.2521	181.367
496.4149	181.4657
496.5778	177.5775
496.7407	177.8902
496.9035	178.0252
497.0663	189.184
497.2291	179.5591
497.3919	178.0682
497.5547	180.2231
497.7176	182.8787
497.8804	182.2533
498.0432	175.9703
498.2059	167.9012
498.3687	161.7995
498.5315	161.8559
498.6942	171.3059
498.857	176.5702
499.0198	178.0748
499.1825	181.7909
499.3452	173.4515
499.508	175.2243
499.6707	181.0292
499.8334	178.8648
499.9962	175.9139
500.1589	172.5666
500.3216	172.3254
500.4843	169.8778
500.6469	167.2714
500.8096	172.8848
500.9723	175.3128
501.135	173.403
501.2976	176.923
501.4603	176.9505
501.623	170.2971
501.7856	172.6031
501.9482	169.9695
502.1109	172.8687
502.2735	172.1606
502.4361	176.3903
502.5987	175.3795
502.7614	178.5118
502.924	179.1331
503.0865	180.2673
503.2491	188.3266
503.4117	182.4322
503.5743	179.0766
503.7368	171.3642
503.8994	168.3339
504.062	171.4571
504.2245	168.6797
504.3871	170.7793
504.5496	178.5004
504.7121	184.2221
504.8746	182.9503
505.0372	179.9911
505.1997	180.6716
505.3622	184.0951
505.5247	185.385
505.6872	191.2732
505.8497	188.6983
506.0121	189.25
506.1746	193.5089
506.3371	190.4857
506.4995	187.5535
506.662	190.3885
506.8244	192.6793
506.9869	184.9035
507.1493	186.4119
507.3117	186.1111
507.4742	185.2735
507.6366	188.9222
507.799	189.9612
507.9614	183.5361
508.1238	175.9386
508.2862	178.0894
508.4485	175.8674
508.6109	184.436
508.7733	192.6944
508.9357	189.5475
509.098	191.813
509.2604	190.6025
509.4227	191.0171
509.5851	192.2162
509.7474	189.9453
509.9097	178.9524
510.072	178.0664
510.2343	189.9679
510.3966	191.15
510.5589	193.741
510.7212	192.974
510.8835	184.5213
511.0458	181.6524
511.2081	185.3976
511.3703	189.9474
511.5326	191.6715
511.6949	197.1417
511.8571	195.5876
512.0193	190.7811
512.1816	188.0561
512.3438	182.0762
512.506	177.8457
512.6682	181.9675
512.8304	180.4028
512.9926	184.826
513.1548	188.5353
513.317	192.2711
513.4792	190.7708
513.6414	191.6948
513.8035	190.1983
513.9657	177.6581
514.1279	174.5641
514.29	176.7855
514.4521	183.1733
514.6143	178.4966
514.7764	179.6542
514.9385	183.5088
515.1006	181.6871
515.2628	181.9123
515.4249	177.7867
515.587	189.7333
515.7491	185.7656
515.9111	188.2612
516.0732	189.7977
516.2353	187.3257
516.3973	181.5921
