SPECTRUM DATA FILE
SpectrumCount:	1
PixelCount:	3648
UserName:	ToughBook User
SampleName:	
LightSource:	
Comments:	
DeviceName:	Qwave
DeviceManufacturer:	Broadcom
DeviceSerialNo:	11311

Name:	last spectrum
Date:	2024-05-02T15:02:12.0043360+02:00
ExposureTime:	0.02
TemporalAvg:	1
IntensityUnit:	normalizedCounts
CCDLoadLevel:	0.04173744
Temperature:	29.55258
DiagramColor:	200
ProcessingSteps:	335

Wavelength [nm]	Intensity1
334.421	6.387091
334.5891	7.746283
334.7573	11.40077
334.9254	10.85774
335.0935	10.91493
335.2616	17.43091
335.4297	10.74753
335.5978	15.52158
335.7659	13.70079
335.934	13.90927
336.1021	13.57221
336.2701	10.65738
336.4382	16.39417
336.6063	11.87517
336.7744	13.67677
336.9424	8.807972
337.1105	12.53113
337.2785	9.836064
337.4466	12.31798
337.6146	12.94373
337.7827	12.09816
337.9507	14.1981
338.1187	13.90495
338.2867	14.44492
338.4548	9.70153
338.6228	5.811803
338.7908	11.28655
338.9588	12.37921
339.1268	11.01465
339.2948	11.28813
339.4628	9.607382
339.6308	12.088
339.7988	14.30476
339.9667	11.78734
340.1347	14.91233
340.3027	12.05334
340.4707	12.06196
340.6386	4.467336
340.8066	9.219766
340.9745	13.82501
341.1425	16.00591
341.3104	14.43896
341.4784	12.59587
341.6463	12.19027
341.8142	13.50158
341.9821	13.99549
342.1501	9.405099
342.318	10.2509
342.4859	16.14095
342.6538	14.66338
342.8217	14.60281
342.9896	15.29176
343.1575	11.50324
343.3254	14.49691
343.4933	11.66852
343.6612	10.98719
343.829	14.44406
343.9969	9.25193
344.1648	13.88448
344.3326	14.9493
344.5005	14.56667
344.6683	8.5577
344.8362	9.470401
345.004	13.09559
345.1719	10.10293
345.3397	15.06693
345.5075	17.14605
345.6754	14.87152
345.8432	13.79535
346.011	13.92864
346.1788	14.92212
346.3466	11.41147
346.5144	15.66062
346.6822	13.95015
346.85	9.643671
347.0178	12.29755
347.1856	12.90032
347.3534	15.75278
347.5211	17.152
347.6889	15.30921
347.8567	13.13386
348.0244	13.00541
348.1922	11.17881
348.3599	12.42271
348.5277	14.30408
348.6954	12.99483
348.8632	12.93569
349.0309	9.779782
349.1986	10.24267
349.3663	10.08668
349.5341	14.73361
349.7018	10.11545
349.8695	8.389499
350.0372	17.02156
350.2049	14.02132
350.3726	9.896326
350.5403	12.77925
350.7079	13.782
350.8756	12.29686
351.0433	10.57011
351.211	15.74165
351.3786	14.99867
351.5463	13.30331
351.714	11.15268
351.8816	14.38389
352.0493	18.13308
352.2169	10.55075
352.3846	15.56758
352.5522	14.00163
352.7198	15.21294
352.8875	10.56161
353.0551	10.49596
353.2227	12.77182
353.3903	9.134422
353.5579	8.974527
353.7255	19.38068
353.8931	16.72276
354.0607	15.19844
354.2283	15.38352
354.3958	20.80058
354.5634	13.37027
354.731	14.26184
354.8986	18.29193
355.0661	15.15217
355.2337	13.30625
355.4012	14.36883
355.5688	13.66115
355.7363	13.91354
355.9039	18.21857
356.0714	17.96179
356.239	16.8964
356.4065	14.04278
356.574	18.04617
356.7415	17.5526
356.909	17.36357
357.0765	12.85658
357.244	13.13613
357.4115	12.28541
357.579	18.37424
357.7465	18.10413
357.914	15.59772
358.0815	14.3416
358.249	12.98596
358.4164	14.51166
358.5839	16.1309
358.7513	17.33693
358.9188	15.30433
359.0862	15.81205
359.2537	18.73692
359.4211	17.14242
359.5886	16.91173
359.756	18.06858
359.9234	16.40098
360.0909	20.39529
360.2583	15.6895
360.4257	17.39377
360.5931	14.53315
360.7605	20.55224
360.9279	17.80091
361.0953	18.84934
361.2627	13.48827
361.4301	18.1248
361.5974	20.99281
361.7648	18.54546
361.9322	14.73845
362.0995	12.7001
362.2669	16.17007
362.4343	21.32459
362.6016	19.01193
362.769	20.47935
362.9363	19.04394
363.1036	13.40637
363.271	18.4939
363.4383	16.56537
363.6056	16.21886
363.7729	17.48112
363.9402	21.78422
364.1075	21.8747
364.2748	19.34507
364.4421	18.03684
364.6094	17.11861
364.7767	17.14862
364.944	21.41542
365.1113	21.47438
365.2786	12.38189
365.4458	22.56871
365.6131	22.1371
365.7803	20.93378
365.9476	17.34733
366.1148	14.05255
366.2821	19.61052
366.4493	22.01991
366.6166	17.15604
366.7838	22.79411
366.951	21.96742
367.1182	21.87194
367.2855	18.88817
367.4527	16.6499
367.6199	23.11805
367.7871	21.15868
367.9543	17.55633
368.1215	21.29681
368.2886	17.99486
368.4558	16.07726
368.623	17.12916
368.7902	21.65139
368.9573	20.32456
369.1245	16.41088
369.2917	17.39362
369.4588	19.67497
369.6259	21.05784
369.7931	18.08905
369.9602	22.68987
370.1274	21.16333
370.2945	21.75682
370.4616	17.98726
370.6287	14.29273
370.7958	16.06408
370.963	25.3476
371.1301	21.66276
371.2971	22.70192
371.4643	19.77078
371.6313	25.48245
371.7984	25.79423
371.9655	19.45729
372.1326	20.99066
372.2997	21.42
372.4667	21.38397
372.6338	18.43663
372.8008	21.6726
372.9679	20.94987
373.1349	28.25197
373.3019	18.55729
373.469	18.38334
373.636	17.75986
373.803	25.96973
373.9701	17.26581
374.1371	16.54482
374.3041	23.8148
374.4711	23.78002
374.6381	17.16433
374.8051	17.90103
374.9721	19.01518
375.1391	18.50587
375.3061	20.28497
375.473	22.78021
375.64	26.28601
375.8069	24.37919
375.9739	24.10069
376.1409	21.5039
376.3078	20.04959
376.4748	19.77052
376.6417	18.77696
376.8087	20.7209
376.9756	16.21658
377.1425	21.90876
377.3094	22.47405
377.4763	23.53554
377.6432	22.59286
377.8102	23.35555
377.9771	24.02972
378.144	25.05152
378.3109	23.63707
378.4777	23.26363
378.6446	27.88408
378.8115	25.03329
378.9784	21.38801
379.1452	21.04837
379.3121	16.61245
379.4789	21.7122
379.6458	18.21027
379.8127	23.96017
379.9795	26.62069
380.1463	24.33306
380.3131	25.90906
380.48	23.71177
380.6468	25.14193
380.8136	27.2656
380.9804	26.56592
381.1472	25.96376
381.314	23.3183
381.4808	26.44767
381.6476	22.75768
381.8144	23.45052
381.9812	21.19922
382.148	20.3539
382.3147	22.77582
382.4815	20.49645
382.6483	21.01098
382.815	15.48181
382.9818	15.29593
383.1485	19.95798
383.3153	15.49717
383.482	19.19005
383.6487	18.17798
383.8155	20.67289
383.9822	21.73843
384.1489	22.28291
384.3156	29.56329
384.4823	24.92028
384.649	29.21586
384.8157	31.17224
384.9824	31.67861
385.1491	29.61177
385.3158	27.85929
385.4825	28.1557
385.6491	23.29682
385.8158	20.67532
385.9825	21.75216
386.1491	25.53498
386.3157	24.10969
386.4824	29.20487
386.649	26.61041
386.8157	27.27004
386.9823	27.04221
387.1489	25.20103
387.3156	22.20764
387.4821	24.53071
387.6488	27.75511
387.8154	23.41275
387.982	27.24997
388.1486	29.05647
388.3152	24.58739
388.4818	30.0122
388.6483	28.36708
388.8149	25.77861
388.9815	28.6623
389.148	29.86238
389.3146	32.43893
389.4811	30.1044
389.6477	30.91175
389.8142	30.9142
389.9808	29.4311
390.1473	28.41435
390.3138	31.31344
390.4804	28.64541
390.6469	27.30848
390.8134	30.02492
390.9799	31.7645
391.1464	33.14305
391.3129	36.30764
391.4794	34.4329
391.6459	32.87923
391.8124	35.40139
391.9789	35.36979
392.1453	30.17749
392.3118	28.9134
392.4782	31.44302
392.6447	30.18499
392.8112	26.20701
392.9776	24.43063
393.144	22.93467
393.3105	21.37844
393.4769	25.12638
393.6433	22.19929
393.8098	21.52206
393.9762	29.34843
394.1426	30.91215
394.309	32.2412
394.4754	36.11143
394.6418	32.78006
394.8082	31.73693
394.9746	35.63123
395.141	39.22087
395.3073	36.02174
395.4737	31.68789
395.64	37.60432
395.8064	36.86382
395.9728	36.1501
396.1391	38.48814
396.3055	34.10173
396.4718	36.11619
396.6381	33.53377
396.8045	26.17903
396.9708	20.86028
397.1371	25.29784
397.3034	33.30646
397.4697	35.8505
397.636	32.74089
397.8023	31.49319
397.9686	43.71294
398.1349	38.59243
398.3012	43.86382
398.4675	39.69062
398.6337	42.3698
398.8	42.53637
398.9662	46.5073
399.1325	41.82308
399.2988	48.34911
399.465	44.5729
399.6313	42.85731
399.7975	45.24611
399.9637	48.4985
400.1299	46.55536
400.2961	51.70474
400.4624	43.39397
400.6286	42.85989
400.7948	46.37984
400.961	43.2534
401.1272	49.18854
401.2934	49.17917
401.4595	47.6291
401.6257	50.07825
401.7919	53.56541
401.9581	52.18288
402.1242	50.32767
402.2904	52.56673
402.4565	50.68319
402.6227	50.41019
402.7888	48.08462
402.955	47.28512
403.1211	49.43016
403.2872	48.61678
403.4533	44.55332
403.6194	51.65495
403.7856	47.59951
403.9517	53.23361
404.1177	51.22263
404.2838	50.27998
404.4499	47.8848
404.616	47.83796
404.7821	48.36136
404.9482	49.22323
405.1142	54.86315
405.2803	57.30238
405.4464	52.07938
405.6124	43.76094
405.7784	44.96157
405.9445	45.32023
406.1105	50.90463
406.2766	48.66025
406.4426	52.64717
406.6086	48.49385
406.7746	52.10981
406.9406	50.82519
407.1066	50.08522
407.2726	48.70207
407.4386	50.05278
407.6046	52.13506
407.7706	52.6854
407.9366	54.69442
408.1025	51.02158
408.2685	60.26882
408.4344	52.93178
408.6004	56.09984
408.7664	61.4478
408.9323	63.38731
409.0983	60.03239
409.2642	60.5653
409.4301	58.53524
409.596	61.62185
409.762	54.57643
409.9279	53.29098
410.0938	50.04345
410.2597	49.05396
410.4256	49.35157
410.5915	60.12268
410.7574	62.48131
410.9232	64.66588
411.0891	65.27708
411.255	65.04025
411.4209	63.96523
411.5867	63.27182
411.7526	58.10744
411.9184	57.50024
412.0843	62.11436
412.2501	62.80832
412.4159	60.59251
412.5818	61.08054
412.7476	61.23014
412.9134	61.97674
413.0792	63.64358
413.245	62.28253
413.4108	56.40552
413.5766	62.98489
413.7424	63.04592
413.9082	69.47343
414.074	64.52187
414.2397	65.70015
414.4055	60.22559
414.5713	62.1704
414.737	63.52052
414.9028	65.5332
415.0685	62.82063
415.2343	61.25519
415.4	61.52997
415.5658	61.92137
415.7315	59.45755
415.8972	61.84924
416.0629	63.47749
416.2286	71.36619
416.3943	73.94109
416.56	72.68375
416.7257	71.08033
416.8914	67.54457
417.0571	65.78785
417.2228	65.93401
417.3884	60.95741
417.5541	56.7957
417.7198	60.76427
417.8854	65.48771
418.0511	64.89234
418.2167	65.78171
418.3824	66.95689
418.548	65.18113
418.7136	65.66733
418.8792	63.83428
419.0449	64.20736
419.2105	74.10762
419.3761	69.95156
419.5417	67.78532
419.7073	67.40363
419.8729	64.13884
420.0385	64.91515
420.204	67.02166
420.3696	68.43938
420.5352	71.09817
420.7007	76.74854
420.8663	76.22073
421.0319	67.07727
421.1974	68.96997
421.3629	69.83299
421.5285	69.72333
421.694	73.63656
421.8595	73.62369
422.0251	76.58804
422.1906	72.14046
422.3561	67.35243
422.5216	63.33213
422.6871	57.0314
422.8526	59.44526
423.0181	70.27236
423.1835	71.52966
423.349	78.19221
423.5145	75.13359
423.68	73.70752
423.8454	67.4632
424.0109	74.55695
424.1763	76.10584
424.3418	79.59035
424.5072	75.50923
424.6726	78.64227
424.838	67.79988
425.0035	66.36085
425.1689	67.22827
425.3343	72.73002
425.4997	75.47941
425.6651	75.04017
425.8305	73.73716
425.9959	72.56013
426.1613	71.2181
426.3267	77.57001
426.492	82.74141
426.6574	80.9968
426.8228	73.50849
426.9881	71.59391
427.1534	70.68473
427.3188	74.23331
427.4841	71.60907
427.6495	76.62655
427.8148	71.94357
427.9801	75.17661
428.1454	74.60948
428.3107	70.48787
428.476	77.91776
428.6414	77.6372
428.8066	72.78441
428.9719	77.38664
429.1372	74.15929
429.3025	75.8896
429.4678	70.12281
429.633	71.33398
429.7983	64.16492
429.9636	60.76432
430.1288	56.53249
430.294	51.64331
430.4593	62.89028
430.6245	61.23067
430.7897	58.27605
430.955	54.48877
431.1202	60.51554
431.2854	67.37095
431.4506	73.83691
431.6158	83.29666
431.781	90.22096
431.9462	94.5498
432.1114	90.06365
432.2766	80.37737
432.4417	72.94067
432.6069	68.76291
432.772	73.19621
432.9372	85.97076
433.1024	90.06397
433.2675	92.09645
433.4326	92.03085
433.5977	83.17023
433.7629	78.91319
433.928	72.21205
434.0931	67.99227
434.2582	73.44361
434.4233	80.67778
434.5884	80.69603
434.7535	93.08989
434.9186	90.41293
435.0837	89.55177
435.2488	88.12073
435.4138	83.78137
435.5789	88.89333
435.744	94.23748
435.909	93.78918
436.0741	97.38174
436.2391	98.63371
436.4042	93.28716
436.5692	98.03899
436.7342	98.72363
436.8992	96.12891
437.0643	96.38181
437.2293	97.74404
437.3943	96.52964
437.5593	93.24123
437.7243	95.34933
437.8893	100.0735
438.0542	99.22282
438.2192	90.45131
438.3842	82.52953
438.5491	82.08807
438.7141	86.07682
438.8791	94.82364
439.044	95.68319
439.209	90.87452
439.3739	90.73214
439.5388	100.258
439.7037	100.1265
439.8687	99.1017
440.0336	96.03036
440.1985	102.8865
440.3634	98.77438
440.5283	94.68587
440.6932	92.85906
440.8581	93.91486
441.0229	102.9196
441.1878	106.3324
441.3527	101.3941
441.5175	103.4415
441.6824	105.668
441.8472	108.5434
442.0121	108.3339
442.1769	109.3064
442.3418	107.2038
442.5066	110.6074
442.6714	110.9618
442.8362	108.4598
443.001	107.3121
443.1659	103.5625
443.3307	104.3252
443.4955	107.2145
443.6602	103.2872
443.825	105.1096
443.9898	107.4661
444.1546	111.1139
444.3193	108.2094
444.4841	109.9144
444.6488	111.553
444.8136	116.8754
444.9783	109.8542
445.1431	111.1854
445.3078	105.8579
445.4725	106.4757
445.6372	99.42245
445.802	99.00229
445.9667	100.4657
446.1314	101.4382
446.2961	108.5032
446.4608	111.6022
446.6255	111.5996
446.7901	109.0846
446.9548	110.4488
447.1195	110.4277
447.2841	115.0933
447.4488	119.9209
447.6134	118.4819
447.7781	117.3974
447.9427	117.8894
448.1074	116.2001
448.272	106.14
448.4366	116.1591
448.6012	121.4188
448.7658	123.8172
448.9305	116.5067
449.095	115.0584
449.2596	118.8727
449.4242	120.7868
449.5888	114.0003
449.7534	117.5317
449.9179	121.6991
450.0825	123.9236
450.2471	126.7179
450.4116	127.301
450.5762	130.3193
450.7407	126.1815
450.9052	127.0564
451.0698	126.0484
451.2343	132.8117
451.3988	125.5694
451.5633	123.3984
451.7278	127.1653
451.8923	126.3812
452.0568	125.5203
452.2213	127.3608
452.3858	127.6735
452.5503	119.9908
452.7148	119.6943
452.8792	117.1935
453.0437	114.5027
453.2081	119.2688
453.3726	115.0985
453.537	130.9614
453.7015	125.8315
453.8659	130.5248
454.0303	126.2665
454.1947	127.4019
454.3592	127.3163
454.5236	129.1897
454.688	130.8592
454.8524	131.8342
455.0168	134.8297
455.1811	128.8018
455.3455	130.8318
455.5099	127.7903
455.6743	122.9718
455.8386	128.8104
456.003	133.1164
456.1673	135.1508
456.3317	131.8662
456.496	127.0931
456.6603	133.4205
456.8246	136.1566
456.989	135.1901
457.1533	134.5769
457.3176	136.0443
457.4819	140.5222
457.6462	143.2564
457.8105	136.4314
457.9748	126.9943
458.1391	134.9993
458.3033	131.4454
458.4676	130.1083
458.6319	122.6016
458.7961	134.0598
458.9604	136.4618
459.1246	131.6051
459.2888	126.04
459.4531	125.5051
459.6173	126.8513
459.7815	127.6014
459.9457	131.8937
460.11	131.7902
460.2741	131.8954
460.4384	127.5046
460.6025	127.1289
460.7667	135.5746
460.9309	130.9571
461.0951	136.4321
461.2592	135.5747
461.4234	136.6333
461.5876	137.1388
461.7517	143.4049
461.9159	140.968
462.08	136.6095
462.2441	138.8037
462.4082	132.4419
462.5724	136.3588
462.7365	146.2727
462.9006	141.1123
463.0647	139.8547
463.2288	135.6342
463.3929	141.5189
463.557	139.6577
463.721	134.5559
463.8851	135.4949
464.0492	131.5728
464.2132	139.3507
464.3773	141.4407
464.5414	133.817
464.7054	133.1053
464.8694	130.8133
465.0334	132.9103
465.1975	141.3603
465.3615	134.7241
465.5255	134.7955
465.6895	137.4592
465.8535	140.9555
466.0175	143.4418
466.1815	138.429
466.3455	138.5331
466.5095	138.2508
466.6734	127.4556
466.8374	132.7351
467.0014	134.9379
467.1653	144.3023
467.3293	142.5038
467.4932	138.7986
467.6571	140.6549
467.8211	138.2025
467.985	134.8544
468.1489	136.9444
468.3128	145.5862
468.4767	154.8385
468.6406	140.0464
468.8045	141.4133
468.9684	139.5802
469.1323	138.56
469.2962	141.0223
469.46	146.8174
469.6239	148.2953
469.7878	144.3858
469.9516	142.3036
470.1154	133.8846
470.2793	131.2534
470.4431	134.6454
470.607	138.808
470.7708	139.4698
470.9346	149.6676
471.0984	148.9375
471.2622	142.6081
471.426	145.4711
471.5898	145.7402
471.7536	149.619
471.9174	154.8662
472.0811	157.5463
472.2449	152.3012
472.4087	155.2351
472.5724	151.587
472.7362	151.9378
472.8999	143.3504
473.0637	144.9937
473.2274	141.7149
473.3911	141.9702
473.5548	145.8049
473.7185	145.697
473.8822	145.6698
474.0459	145.8053
474.2096	152.3952
474.3733	155.9479
474.537	153.2426
474.7007	144.9156
474.8643	144.175
475.028	151.8276
475.1917	152.1469
475.3553	146.9375
475.519	142.575
475.6826	153.2211
475.8463	148.8764
476.0099	154.7899
476.1735	145.8755
476.3371	141.7164
476.5007	137.4697
476.6643	141.354
476.8279	133.9361
476.9915	146.41
477.1551	147.1816
477.3187	153.6321
477.4823	148.9919
477.6458	149.0279
477.8094	152.6624
477.9729	155.5076
478.1365	152.2576
478.3	154.4024
478.4636	154.0379
478.6271	149.7034
478.7906	147.4092
478.9541	147.2941
479.1176	147.1636
479.2812	154.671
479.4447	155.1785
479.6082	155.2379
479.7716	148.5044
479.9351	155.924
480.0986	152.4271
480.2621	147.1599
480.4255	145.0867
480.589	150.2619
480.7524	157.4563
480.9159	151.9266
481.0793	152.9942
481.2428	150.4779
481.4062	149.2363
481.5696	151.3284
481.733	159.4163
481.8964	155.0562
482.0598	155.3304
482.2232	154.23
482.3866	153.6264
482.55	149.8043
482.7134	149.2085
482.8768	154.1351
483.0401	153.3891
483.2035	155.7824
483.3668	153.9425
483.5302	153.8365
483.6935	149.5428
483.8568	152.4581
484.0202	156.0814
484.1835	150.1799
484.3468	146.8299
484.5101	152.2396
484.6734	160.0062
484.8367	156.3754
485	157.9206
485.1633	156.8242
485.3266	151.5462
485.4899	142.0087
485.6531	138.6479
485.8164	144.4604
485.9796	135.8526
486.1429	113.7732
486.3061	114.5755
486.4694	132.162
486.6326	136.7956
486.7958	139.019
486.959	150.7823
487.1223	141.1692
487.2855	146.3941
487.4486	146.3488
487.6118	158.898
487.775	158.823
487.9382	154.6963
488.1014	154.4315
488.2646	162.4839
488.4277	160.6524
488.5909	152.0806
488.754	149.4441
488.9171	148.362
489.0803	145.5584
489.2434	140.4887
489.4066	144.629
489.5697	160.0567
489.7328	159.7569
489.8959	160.4232
490.059	162.4526
490.2221	156.1048
490.3852	157.9385
490.5482	150.4175
490.7113	153.961
490.8744	157.7949
491.0374	153.8708
491.2005	162.5142
491.3636	162.7759
491.5266	164.6351
491.6896	158.4641
491.8527	151.5555
492.0157	142.8286
492.1787	149.301
492.3417	149.7766
492.5047	152.9982
492.6677	162.7356
492.8307	164.7075
492.9937	167.5565
493.1567	167.2527
493.3196	165.1611
493.4826	158.4452
493.6456	157.517
493.8085	161.4082
493.9715	156.1232
494.1344	157.6472
494.2974	165.1344
494.4603	168.0511
494.6232	162.4253
494.7861	166.4041
494.949	169.6833
495.1119	172.1173
495.2748	164.6685
495.4377	159.9243
495.6006	161.7508
495.7635	158.5705
495.9264	157.2685
496.0892	166.7811
496.2521	170.986
496.4149	173.8465
496.5778	166.8098
496.7407	166.3314
496.9035	160.8962
497.0663	164.3802
497.2291	164.1847
497.3919	167.8607
497.5547	164.8847
497.7176	163.2881
497.8804	160.9864
498.0432	162.0873
498.2059	159.2007
498.3687	151.141
498.5315	152.6962
498.6942	157.8764
498.857	166.4382
499.0198	175.1831
499.1825	170.1353
499.3452	168.1345
499.508	167.0728
499.6707	164.9304
499.8334	169.4529
499.9962	164.7049
500.1589	163.8989
500.3216	162.7894
500.4843	158.6987
500.6469	159.4489
500.8096	158.6275
500.9723	157.8462
501.135	160.6165
501.2976	159.9597
501.4603	154.4099
501.623	159.5191
501.7856	164.3115
501.9482	158.4281
502.1109	159.0928
502.2735	164.1399
502.4361	163.4911
502.5987	168.4414
502.7614	174.1956
502.924	171.7505
503.0865	170.0984
503.2491	174.2114
503.4117	172.4532
503.5743	171.8345
503.7368	164.877
503.8994	161.381
504.062	158.9356
504.2245	155.7272
504.3871	166.7992
504.5496	168.6872
504.7121	172.6132
504.8746	167.7552
505.0372	163.9435
505.1997	165.2093
505.3622	172.7781
505.5247	178.3471
505.6872	175.0205
505.8497	176.9841
506.0121	177.9126
506.1746	179.4981
506.3371	178.581
506.4995	173.6662
506.662	169.4125
506.8244	173.0457
506.9869	171.3189
507.1493	172.7726
507.3117	174.368
507.4742	175.5049
507.6366	175.9769
507.799	176.1326
507.9614	175.328
508.1238	166.3367
508.2862	163.6439
508.4485	180.3411
508.6109	180.8194
508.7733	177.9276
508.9357	177.6098
509.098	180.9695
509.2604	182.9768
509.4227	184.74
509.5851	175.9774
509.7474	180.2193
509.9097	171.5286
510.072	165.849
510.2343	180.6933
510.3966	181.5471
510.5589	183.3369
510.7212	172.6808
510.8835	174.6771
511.0458	170.32
511.2081	170.6766
511.3703	176.9407
511.5326	179.8543
511.6949	185.8175
511.8571	184.2638
512.0193	179.9958
512.1816	171.8015
512.3438	168.3081
512.506	171.5275
512.6682	165.6219
512.8304	168.8759
512.9926	173.6584
513.1548	176.8076
513.317	176.8372
513.4792	167.695
513.6414	175.936
513.8035	171.196
513.9657	171.5041
514.1279	169.219
514.29	165.2579
514.4521	169.936
514.6143	170.7588
514.7764	171.4474
514.9385	169.6446
515.1006	168.6445
515.2628	175.638
515.4249	173.4059
515.587	175.775
515.7491	177.8638
515.9111	178.7832
516.0732	175.6527
516.2353	165.1836
516.3973	167.4708
