SPECTRUM DATA FILE
SpectrumCount:	1
PixelCount:	3648
UserName:	ToughBook User
SampleName:	
LightSource:	
Comments:	
DeviceName:	Qwave
DeviceManufacturer:	Broadcom
DeviceSerialNo:	11311

Name:	last spectrum
Date:	2024-05-02T15:02:48.6840852+02:00
ExposureTime:	0.02
TemporalAvg:	1
IntensityUnit:	normalizedCounts
CCDLoadLevel:	0.05269914
Temperature:	29.44586
DiagramColor:	200
ProcessingSteps:	335

Wavelength [nm]	Intensity1
334.421	14.32222
334.5891	14.572
334.7573	8.05379
334.9254	10.90644
335.0935	14.49019
335.2616	12.10633
335.4297	14.65708
335.5978	12.54191
335.7659	13.21866
335.934	9.799104
336.1021	12.31026
336.2701	15.99509
336.4382	16.38111
336.6063	14.52713
336.7744	12.55614
336.9424	10.72652
337.1105	14.64998
337.2785	12.18724
337.4466	11.2191
337.6146	14.20663
337.7827	10.33455
337.9507	13.26773
338.1187	12.63112
338.2867	11.33811
338.4548	12.01082
338.6228	9.671539
338.7908	10.88878
338.9588	7.322408
339.1268	13.42687
339.2948	11.1685
339.4628	12.78484
339.6308	12.21433
339.7988	9.136361
339.9667	13.0033
340.1347	11.7892
340.3027	11.8538
340.4707	11.74814
340.6386	15.55654
340.8066	11.87825
340.9745	10.85571
341.1425	13.10473
341.3104	14.96969
341.4784	14.60568
341.6463	7.096634
341.8142	10.39591
341.9821	15.05359
342.1501	13.64168
342.318	11.27363
342.4859	16.4317
342.6538	11.05184
342.8217	12.14901
342.9896	14.00783
343.1575	13.13872
343.3254	15.24795
343.4933	10.41627
343.6612	8.229754
343.829	10.46429
343.9969	13.73905
344.1648	14.11966
344.3326	12.79653
344.5005	17.61761
344.6683	13.84837
344.8362	9.533467
345.004	8.653681
345.1719	15.35835
345.3397	14.95989
345.5075	15.17121
345.6754	14.87947
345.8432	14.0416
346.011	16.33936
346.1788	13.77909
346.3466	10.70254
346.5144	14.3154
346.6822	13.87572
346.85	17.35284
347.0178	16.5159
347.1856	12.44844
347.3534	13.16373
347.5211	15.91807
347.6889	13.95027
347.8567	13.62793
348.0244	16.74678
348.1922	14.7036
348.3599	11.81749
348.5277	15.00181
348.6954	14.07891
348.8632	13.70995
349.0309	10.05653
349.1986	16.42878
349.3663	15.70437
349.5341	12.17742
349.7018	13.49409
349.8695	15.34233
350.0372	13.70203
350.2049	13.81085
350.3726	14.31158
350.5403	10.81046
350.7079	11.7983
350.8756	12.31406
351.0433	15.21552
351.211	15.70225
351.3786	16.34134
351.5463	18.95358
351.714	20.60144
351.8816	16.51901
352.0493	18.68511
352.2169	15.28502
352.3846	13.36842
352.5522	16.25311
352.7198	15.89919
352.8875	15.80804
353.0551	12.01753
353.2227	16.48088
353.3903	17.4314
353.5579	17.96032
353.7255	15.02412
353.8931	12.96672
354.0607	15.84693
354.2283	15.74026
354.3958	18.03467
354.5634	19.07029
354.731	24.59386
354.8986	18.56683
355.0661	21.90732
355.2337	15.84929
355.4012	20.60242
355.5688	20.09155
355.7363	17.69147
355.9039	15.81077
356.0714	16.89439
356.239	23.98576
356.4065	19.21752
356.574	21.21199
356.7415	15.91501
356.909	15.51117
357.0765	12.80448
357.244	12.19486
357.4115	17.04142
357.579	18.25539
357.7465	15.77346
357.914	10.20479
358.0815	13.00991
358.249	15.61771
358.4164	13.62621
358.5839	19.86204
358.7513	11.97483
358.9188	13.05106
359.0862	16.8931
359.2537	21.04531
359.4211	15.14782
359.5886	18.72136
359.756	19.54739
359.9234	18.53986
360.0909	17.46752
360.2583	16.64791
360.4257	19.94491
360.5931	19.29617
360.7605	17.75117
360.9279	16.74673
361.0953	16.15541
361.2627	16.87271
361.4301	20.81913
361.5974	17.69302
361.7648	18.31324
361.9322	17.4256
362.0995	18.18952
362.2669	17.51083
362.4343	18.22177
362.6016	18.75854
362.769	18.87337
362.9363	21.26452
363.1036	22.02936
363.271	22.4618
363.4383	20.29407
363.6056	20.26367
363.7729	24.79486
363.9402	22.85214
364.1075	21.32461
364.2748	16.18166
364.4421	21.2407
364.6094	21.01223
364.7767	18.41037
364.944	17.82954
365.1113	24.93409
365.2786	20.93635
365.4458	20.4653
365.6131	25.02842
365.7803	23.50904
365.9476	23.64145
366.1148	21.9932
366.2821	21.78428
366.4493	23.24594
366.6166	22.97148
366.7838	21.20712
366.951	20.53266
367.1182	20.63543
367.2855	22.90068
367.4527	25.84398
367.6199	29.48833
367.7871	27.28275
367.9543	24.04797
368.1215	18.72938
368.2886	21.61868
368.4558	22.18045
368.623	17.57688
368.7902	23.41731
368.9573	19.50405
369.1245	26.09624
369.2917	28.30204
369.4588	24.22361
369.6259	26.84786
369.7931	24.20487
369.9602	24.4183
370.1274	26.29026
370.2945	21.1749
370.4616	25.26772
370.6287	20.49223
370.7958	22.40234
370.963	22.48826
371.1301	24.97274
371.2971	27.78142
371.4643	27.5695
371.6313	29.2443
371.7984	24.95178
371.9655	23.13811
372.1326	23.83791
372.2997	22.17904
372.4667	23.77666
372.6338	27.09306
372.8008	21.64915
372.9679	22.98267
373.1349	22.73344
373.3019	23.91838
373.469	24.95329
373.636	22.6688
373.803	19.53669
373.9701	24.17269
374.1371	23.78433
374.3041	22.23901
374.4711	24.65675
374.6381	25.3492
374.8051	21.29965
374.9721	28.63915
375.1391	28.01101
375.3061	25.17488
375.473	26.30923
375.64	24.22951
375.8069	27.47654
375.9739	23.93161
376.1409	25.97983
376.3078	25.53632
376.4748	30.68891
376.6417	28.93594
376.8087	27.19437
376.9756	26.7433
377.1425	21.49294
377.3094	30.02254
377.4763	30.09372
377.6432	33.57259
377.8102	29.95878
377.9771	29.07788
378.144	30.3858
378.3109	29.57351
378.4777	30.69886
378.6446	31.50818
378.8115	27.63902
378.9784	27.63845
379.1452	26.44928
379.3121	27.69758
379.4789	24.73144
379.6458	25.72066
379.8127	29.16087
379.9795	28.53653
380.1463	26.99767
380.3131	29.34656
380.48	29.53961
380.6468	33.48376
380.8136	33.07835
380.9804	33.01749
381.1472	32.54247
381.314	30.21852
381.4808	26.24474
381.6476	25.65349
381.8144	26.01984
381.9812	25.00251
382.148	26.27571
382.3147	32.50694
382.4815	25.01387
382.6483	21.49143
382.815	20.13691
382.9818	19.48687
383.1485	25.10986
383.3153	25.58359
383.482	23.99347
383.6487	24.58815
383.8155	21.1622
383.9822	25.00738
384.1489	28.44312
384.3156	28.31276
384.4823	31.22786
384.649	34.24736
384.8157	38.30415
384.9824	32.86215
385.1491	27.97295
385.3158	30.63774
385.4825	36.11702
385.6491	30.92424
385.8158	31.544
385.9825	31.94143
386.1491	27.23132
386.3157	30.02321
386.4824	34.27966
386.649	31.66827
386.8157	31.1889
386.9823	30.85505
387.1489	27.76806
387.3156	28.0526
387.4821	31.44685
387.6488	38.3698
387.8154	33.0427
387.982	30.05605
388.1486	32.49697
388.3152	32.22313
388.4818	32.43399
388.6483	30.87818
388.8149	29.07083
388.9815	28.30078
389.148	34.84641
389.3146	39.65657
389.4811	39.5718
389.6477	39.91175
389.8142	35.22663
389.9808	36.52337
390.1473	39.71585
390.3138	38.05796
390.4804	40.04613
390.6469	36.87441
390.8134	39.99691
390.9799	36.96985
391.1464	44.22909
391.3129	44.40844
391.4794	41.51603
391.6459	42.03819
391.8124	40.0796
391.9789	34.02484
392.1453	39.08534
392.3118	35.73589
392.4782	36.77747
392.6447	33.9539
392.8112	33.84742
392.9776	26.99688
393.144	26.68734
393.3105	22.0406
393.4769	22.35272
393.6433	23.75343
393.8098	26.54583
393.9762	29.98372
394.1426	32.91469
394.309	38.87339
394.4754	32.74102
394.6418	44.45366
394.8082	44.45831
394.9746	47.15292
395.141	43.47031
395.3073	45.69187
395.4737	43.23296
395.64	43.73344
395.8064	43.11804
395.9728	44.07381
396.1391	38.93689
396.3055	31.29188
396.4718	33.18318
396.6381	29.23492
396.8045	28.48867
396.9708	27.71951
397.1371	30.07873
397.3034	33.34558
397.4697	35.79861
397.636	47.06076
397.8023	50.3561
397.9686	47.94449
398.1349	50.67509
398.3012	53.4554
398.4675	50.1004
398.6337	57.52143
398.8	61.39067
398.9662	59.58067
399.1325	54.994
399.2988	56.44963
399.465	56.71355
399.6313	57.845
399.7975	57.14373
399.9637	50.86227
400.1299	57.49186
400.2961	63.27009
400.4624	61.53155
400.6286	49.39225
400.7948	57.63396
400.961	64.17738
401.1272	60.58613
401.2934	56.61761
401.4595	58.83256
401.6257	67.04571
401.7919	63.28308
401.9581	59.74117
402.1242	62.58672
402.2904	61.55104
402.4565	59.00791
402.6227	59.27192
402.7888	65.11519
402.955	59.12292
403.1211	54.66818
403.2872	55.54018
403.4533	52.93581
403.6194	57.6873
403.7856	62.90211
403.9517	66.29046
404.1177	65.29016
404.2838	62.23598
404.4499	58.84429
404.616	56.78298
404.7821	60.09886
404.9482	66.82285
405.1142	69.24111
405.2803	64.98669
405.4464	67.42987
405.6124	67.01004
405.7784	60.90614
405.9445	60.61887
406.1105	58.66897
406.2766	60.96405
406.4426	59.04972
406.6086	63.15114
406.7746	64.57866
406.9406	66.60338
407.1066	61.4163
407.2726	63.59198
407.4386	63.33783
407.6046	61.77788
407.7706	60.75776
407.9366	67.23383
408.1025	68.39772
408.2685	67.64899
408.4344	68.52018
408.6004	72.1155
408.7664	77.09539
408.9323	74.19765
409.0983	74.56527
409.2642	71.93945
409.4301	72.86997
409.596	69.48814
409.762	67.73551
409.9279	62.4486
410.0938	62.45293
410.2597	58.85032
410.4256	64.59388
410.5915	69.97272
410.7574	74.82953
410.9232	74.42165
411.0891	74.71743
411.255	70.51175
411.4209	79.98058
411.5867	80.37245
411.7526	71.22638
411.9184	73.33057
412.0843	75.17338
412.2501	71.61027
412.4159	79.07695
412.5818	76.70471
412.7476	74.56593
412.9134	78.33518
413.0792	79.47879
413.245	71.87387
413.4108	74.26566
413.5766	77.05205
413.7424	80.32057
413.9082	84.88396
414.074	77.52634
414.2397	76.29654
414.4055	70.69823
414.5713	77.08422
414.737	78.68954
414.9028	83.30957
415.0685	79.22376
415.2343	77.45493
415.4	76.78185
415.5658	72.52633
415.7315	79.09835
415.8972	81.67087
416.0629	83.00838
416.2286	81.131
416.3943	83.28586
416.56	90.91543
416.7257	82.86961
416.8914	79.29073
417.0571	84.23264
417.2228	74.78881
417.3884	81.17651
417.5541	77.32523
417.7198	72.50395
417.8854	83.84999
418.0511	82.49528
418.2167	77.32127
418.3824	78.55921
418.548	82.70484
418.7136	82.86732
418.8792	84.94792
419.0449	86.59467
419.2105	84.35481
419.3761	85.49304
419.5417	83.61289
419.7073	81.75964
419.8729	81.08088
420.0385	75.77706
420.204	80.41943
420.3696	85.59099
420.5352	85.54464
420.7007	95.56637
420.8663	98.03422
421.0319	93.66265
421.1974	88.10155
421.3629	90.0453
421.5285	91.08624
421.694	87.26099
421.8595	91.15418
422.0251	99.56577
422.1906	95.63013
422.3561	88.62682
422.5216	82.25117
422.6871	76.20824
422.8526	86.94105
423.0181	90.86375
423.1835	93.99854
423.349	94.49429
423.5145	93.00622
423.68	87.25934
423.8454	91.99831
424.0109	94.34745
424.1763	98.87994
424.3418	95.34161
424.5072	91.79811
424.6726	93.52994
424.838	89.35497
425.0035	92.18041
425.1689	95.20547
425.3343	92.18275
425.4997	93.56435
425.6651	94.90793
425.8305	98.24247
425.9959	86.46223
426.1613	87.63446
426.3267	97.13754
426.492	103.9821
426.6574	104.5214
426.8228	95.3081
426.9881	89.69642
427.1534	91.83116
427.3188	84.88979
427.4841	83.61278
427.6495	88.23265
427.8148	91.77588
427.9801	96.75528
428.1454	94.46057
428.3107	94.69233
428.476	99.95778
428.6414	94.41582
428.8066	92.27147
428.9719	83.60544
429.1372	88.57159
429.3025	95.20188
429.4678	91.87892
429.633	85.86562
429.7983	83.13723
429.9636	77.57037
430.1288	76.1895
430.294	80.57739
430.4593	79.63634
430.6245	74.52184
430.7897	68.07491
430.955	70.59647
431.1202	71.93588
431.2854	83.14938
431.4506	93.30092
431.6158	100.6304
431.781	112.4149
431.9462	115.3357
432.1114	119.9138
432.2766	104.2243
432.4417	89.45027
432.6069	89.83401
432.772	100.0751
432.9372	103.8557
433.1024	111.2177
433.2675	108.8121
433.4326	107.3702
433.5977	106.1971
433.7629	99.90154
433.928	88.69796
434.0931	79.70579
434.2582	85.43498
434.4233	97.80605
434.5884	109.9794
434.7535	112.1465
434.9186	116.6716
435.0837	109.7993
435.2488	100.6979
435.4138	101.928
435.5789	108.6777
435.744	113.7307
435.909	113.0567
436.0741	120.5147
436.2391	118.4921
436.4042	122.9394
436.5692	123.7729
436.7342	127.2204
436.8992	120.8321
437.0643	121.75
437.2293	117.1819
437.3943	111.3834
437.5593	117.5396
437.7243	115.3963
437.8893	119.6238
438.0542	118.6993
438.2192	104.042
438.3842	94.34531
438.5491	98.11093
438.7141	104.5053
438.8791	113.6705
439.044	112.3974
439.209	112.7857
439.3739	119.5036
439.5388	122.971
439.7037	127.4326
439.8687	125.054
440.0336	122.1178
440.1985	122.2486
440.3634	120.6241
440.5283	123.5827
440.6932	120.3448
440.8581	122.9166
441.0229	126.8022
441.1878	132.4835
441.3527	133.8455
441.5175	127.7585
441.6824	129.3102
441.8472	134.144
442.0121	134.6659
442.1769	133.9036
442.3418	140.0657
442.5066	134.1601
442.6714	135.1163
442.8362	138.7475
443.001	137.7091
443.1659	135.0108
443.3307	128.029
443.4955	132.9031
443.6602	137.5563
443.825	133.7271
443.9898	145.0665
444.1546	143.6606
444.3193	132.4056
444.4841	134.6637
444.6488	139.2489
444.8136	143.0232
444.9783	141.2758
445.1431	141.8948
445.3078	130.7561
445.4725	123.7816
445.6372	125.6848
445.802	132.4491
445.9667	132.3636
446.1314	131.2008
446.2961	134.7355
446.4608	141.3131
446.6255	137.6411
446.7901	135.1449
446.9548	138.7611
447.1195	144.756
447.2841	147.694
447.4488	148.7442
447.6134	149.2539
447.7781	153.3814
447.9427	147.351
448.1074	140.369
448.272	137.6731
448.4366	145.3431
448.6012	153.4272
448.7658	157.4524
448.9305	149.8773
449.095	147.4888
449.2596	152.6976
449.4242	150.1129
449.5888	151.7288
449.7534	148.0002
449.9179	152.0753
450.0825	154.6168
450.2471	158.1721
450.4116	158.6492
450.5762	161.3007
450.7407	166.5464
450.9052	158.4895
451.0698	165.4522
451.2343	169.8709
451.3988	162.7088
451.5633	154.9994
451.7278	156.7228
451.8923	161.2043
452.0568	164.0186
452.2213	163.6161
452.3858	164.2716
452.5503	161.1591
452.7148	154.8105
452.8792	149.9061
453.0437	148.7331
453.2081	150.1622
453.3726	156.777
453.537	152.7272
453.7015	157.0393
453.8659	158.4675
454.0303	162.6396
454.1947	163.2138
454.3592	158.0702
454.5236	161.5446
454.688	164.3038
454.8524	160.9919
455.0168	156.4288
455.1811	159.1293
455.3455	159.6608
455.5099	157.4035
455.6743	160.8904
455.8386	167.453
456.003	170.8229
456.1673	164.874
456.3317	167.5576
456.496	174.6902
456.6603	166.2352
456.8246	165.0369
456.989	168.2796
457.1533	172.2549
457.3176	166.9211
457.4819	162.2236
457.6462	171.0667
457.8105	170.2036
457.9748	164.1303
458.1391	156.8061
458.3033	155.3354
458.4676	161.0366
458.6319	165.3122
458.7961	167.6993
458.9604	168.2612
459.1246	172.8455
459.2888	162.0542
459.4531	170.0541
459.6173	171.1483
459.7815	166.0856
459.9457	161.8845
460.11	166.8074
460.2741	166.6198
460.4384	163.0573
460.6025	165.1697
460.7667	169.0469
460.9309	176.1612
461.0951	172.283
461.2592	167.3665
461.4234	175.2275
461.5876	174.4489
461.7517	179.2708
461.9159	179.1301
462.08	171.3113
462.2441	180.2981
462.4082	180.7851
462.5724	178.0789
462.7365	178.8762
462.9006	177.809
463.0647	183.7929
463.2288	177.6626
463.3929	178.7919
463.557	175.0716
463.721	178.8675
463.8851	173.067
464.0492	169.0792
464.2132	173.1265
464.3773	173.6466
464.5414	170.0851
464.7054	170.8148
464.8694	168.2758
465.0334	173.3922
465.1975	173.1483
465.3615	170.2771
465.5255	169.5737
465.6895	173.7766
465.8535	181.2698
466.0175	184.5322
466.1815	174.9279
466.3455	173.954
466.5095	172.3108
466.6734	162.5543
466.8374	158.4096
467.0014	161.5399
467.1653	166.7272
467.3293	178.9981
467.4932	188.7706
467.6571	183.301
467.8211	178.9237
467.985	181.1574
468.1489	177.4604
468.3128	176.9765
468.4767	184.0666
468.6406	182.8171
468.8045	179.5309
468.9684	178.2613
469.1323	177.6738
469.2962	179.6055
469.46	175.1023
469.6239	180.0849
469.7878	183.0875
469.9516	176.7341
470.1154	171.8322
470.2793	169.8199
470.4431	167.0185
470.607	175.0478
470.7708	177.5564
470.9346	174.7903
471.0984	179.6003
471.2622	180.961
471.426	181.2036
471.5898	188.5652
471.7536	188.414
471.9174	198.839
472.0811	197.6449
472.2449	191.4341
472.4087	188.9325
472.5724	192.0786
472.7362	187.849
472.8999	188.7455
473.0637	187.0837
473.2274	181.9555
473.3911	187.0785
473.5548	180.1601
473.7185	185.1882
473.8822	188.7859
474.0459	188.7718
474.2096	192.2686
474.3733	192.6547
474.537	197.6932
474.7007	194.3328
474.8643	194.8092
475.028	189.5069
475.1917	188.644
475.3553	192.0492
475.519	182.6695
475.6826	189.9523
475.8463	193.4445
476.0099	184.6546
476.1735	185.6934
476.3371	180.4631
476.5007	177.0467
476.6643	182.3727
476.8279	186.659
476.9915	191.9594
477.1551	192.1502
477.3187	195.0718
477.4823	196.8
477.6458	198.1433
477.8094	193.9794
477.9729	199.7228
478.1365	195.2679
478.3	189.1867
478.4636	188.3116
478.6271	178.7453
478.7906	188.2994
478.9541	189.5743
479.1176	192.9798
479.2812	195.2713
479.4447	196.8161
479.6082	198.785
479.7716	205.954
479.9351	199.1709
480.0986	190.6108
480.2621	193.8974
480.4255	197.0393
480.589	190.4901
480.7524	189.9728
480.9159	192.3718
481.0793	185.8476
481.2428	188.4084
481.4062	187.3833
481.5696	194.8612
481.733	201.2707
481.8964	197.4993
482.0598	196.431
482.2232	195.8819
482.3866	193.9114
482.55	197.4291
482.7134	193.8655
482.8768	199.4444
483.0401	196.1477
483.2035	186.123
483.3668	194.417
483.5302	192.4749
483.6935	186.6071
483.8568	193.9549
484.0202	190.9395
484.1835	190.1334
484.3468	191.4038
484.5101	197.4591
484.6734	198.8632
484.8367	193.6381
485	193.7376
485.1633	197.4379
485.3266	192.1569
485.4899	182.1494
485.6531	178.0276
485.8164	170.6289
485.9796	162.2515
486.1429	148.4327
486.3061	147.0083
486.4694	157.1935
486.6326	177.9207
486.7958	183.5478
486.959	184.3764
487.1223	179.8447
487.2855	178.1131
487.4486	183.6565
487.6118	192.9695
487.775	189.9815
487.9382	198.816
488.1014	204.2664
488.2646	203.5344
488.4277	198.743
488.5909	194.4961
488.754	190.6332
488.9171	185.9416
489.0803	186.321
489.2434	196.7456
489.4066	196.683
489.5697	206.0067
489.7328	207.571
489.8959	205.2339
490.059	205.8749
490.2221	204.5146
490.3852	208.3188
490.5482	206.8606
490.7113	211.3891
490.8744	208.6972
491.0374	194.6285
491.2005	193.2216
491.3636	198.735
491.5266	213.3459
491.6896	199.8163
491.8527	186.7015
492.0157	180.7683
492.1787	183.2684
492.3417	192.2243
492.5047	203.5262
492.6677	209.2626
492.8307	215.6182
492.9937	215.1469
493.1567	208.3478
493.3196	204.3082
493.4826	199.6763
493.6456	203.1859
493.8085	195.8517
493.9715	194.8899
494.1344	201.132
494.2974	212.8881
494.4603	206.6747
494.6232	207.335
494.7861	211.7542
494.949	212.8503
495.1119	216.8556
495.2748	211.1267
495.4377	204.0931
495.6006	201.3524
495.7635	198.473
495.9264	202.4894
496.0892	208.7715
496.2521	216.8334
496.4149	221.0001
496.5778	208.1907
496.7407	208.659
496.9035	208.9447
497.0663	209.1405
497.2291	211.7165
497.3919	217.6
497.5547	216.6432
497.7176	212.7608
497.8804	211.5804
498.0432	204.0575
498.2059	207.1587
498.3687	194.4043
498.5315	195.6597
498.6942	203.5387
498.857	211.2752
499.0198	215.2447
499.1825	213.121
499.3452	214.5685
499.508	214.1129
499.6707	214.303
499.8334	210.5404
499.9962	208.2149
500.1589	207.4109
500.3216	206.1806
500.4843	203.5548
500.6469	197.2633
500.8096	202.8229
500.9723	218.3976
501.135	209.6801
501.2976	207.0772
501.4603	199.0498
501.623	200.373
501.7856	204.8715
501.9482	205.2789
502.1109	211.0227
502.2735	208.397
502.4361	211.6707
502.5987	212.5762
502.7614	213.6929
502.924	215.504
503.0865	214.825
503.2491	223.1412
503.4117	221.7013
503.5743	215.0877
503.7368	206.997
503.8994	212.1301
504.062	207.5328
504.2245	197.629
504.3871	201.1522
504.5496	216.5405
504.7121	227.6204
504.8746	220.5542
505.0372	211.7322
505.1997	209.9196
505.3622	217.5249
505.5247	223.2501
505.6872	223.9658
505.8497	225.251
506.0121	227.2895
506.1746	227.4461
506.3371	227.7858
506.4995	224.4588
506.662	219.6293
506.8244	220.6518
506.9869	224.6027
507.1493	228.9783
507.3117	225.3554
507.4742	225.5466
507.6366	225.6335
507.799	222.7851
507.9614	221.0641
508.1238	214.1262
508.2862	213.6486
508.4485	215.7699
508.6109	217.5059
508.7733	225.0683
508.9357	228.6814
509.098	231.5944
509.2604	229.081
509.4227	229.2866
509.5851	228.351
509.7474	223.01
509.9097	215.1457
510.072	216.4383
510.2343	220.8286
510.3966	224.7642
510.5589	227.9315
510.7212	214.5327
510.8835	214.991
511.0458	224.8957
511.2081	224.426
511.3703	227.8089
511.5326	229.519
511.6949	231.3001
511.8571	230.1638
512.0193	224.2962
512.1816	221.0159
512.3438	217.1745
512.506	213.2869
512.6682	206.7488
512.8304	210.3486
512.9926	220.0304
513.1548	220.6869
513.317	218.3694
513.4792	221.0926
513.6414	218.8221
513.8035	216.5151
513.9657	208.9025
514.1279	212.9108
514.29	211.4426
514.4521	205.2941
514.6143	214.2547
514.7764	220.8893
514.9385	222.6228
515.1006	215.5979
515.2628	220.2679
515.4249	218.044
515.587	214.2733
515.7491	215.8998
515.9111	224.4778
516.0732	224.3411
516.2353	221.6905
