SPECTRUM DATA FILE
SpectrumCount:	1
PixelCount:	3648
UserName:	ToughBook User
SampleName:	
LightSource:	
Comments:	
DeviceName:	Qwave
DeviceManufacturer:	Broadcom
DeviceSerialNo:	11311

Name:	last spectrum
Date:	2024-05-02T15:03:11.0649634+02:00
ExposureTime:	0.02
TemporalAvg:	1
IntensityUnit:	normalizedCounts
CCDLoadLevel:	0.04694264
Temperature:	29.33926
DiagramColor:	200
ProcessingSteps:	335

Wavelength [nm]	Intensity1
334.421	6.16394
334.5891	10.82267
334.7573	11.18547
334.9254	10.98918
335.0935	9.731923
335.2616	11.07388
335.4297	12.18761
335.5978	9.169865
335.7659	16.4345
335.934	12.30985
336.1021	12.40391
336.2701	10.00235
336.4382	10.4341
336.6063	15.19243
336.7744	13.50852
336.9424	10.9324
337.1105	9.276786
337.2785	11.13492
337.4466	14.98668
337.6146	11.81395
337.7827	12.45686
337.9507	15.43561
338.1187	11.81945
338.2867	11.53543
338.4548	13.31661
338.6228	11.55532
338.7908	7.530775
338.9588	12.58988
339.1268	12.25985
339.2948	11.75193
339.4628	17.60714
339.6308	12.01551
339.7988	14.8799
339.9667	14.6197
340.1347	13.11863
340.3027	10.62308
340.4707	9.375731
340.6386	10.81228
340.8066	10.55499
340.9745	9.145231
341.1425	12.92511
341.3104	12.40853
341.4784	10.05755
341.6463	10.55401
341.8142	11.0648
341.9821	10.90101
342.1501	14.11455
342.318	9.72694
342.4859	11.44065
342.6538	11.52656
342.8217	11.16796
342.9896	15.50677
343.1575	15.85083
343.3254	15.62611
343.4933	10.40125
343.6612	7.912354
343.829	14.34169
343.9969	15.49346
344.1648	12.15808
344.3326	13.20721
344.5005	12.74962
344.6683	12.28698
344.8362	12.44846
345.004	14.92752
345.1719	7.149805
345.3397	10.67811
345.5075	13.81377
345.6754	15.40458
345.8432	11.46669
346.011	15.31378
346.1788	14.83243
346.3466	13.49549
346.5144	11.87565
346.6822	20.0718
346.85	12.98966
347.0178	16.39699
347.1856	11.86351
347.3534	10.29638
347.5211	12.47343
347.6889	16.7982
347.8567	15.28699
348.0244	13.24772
348.1922	14.49964
348.3599	15.63908
348.5277	11.22158
348.6954	12.59519
348.8632	12.58608
349.0309	11.82556
349.1986	9.435296
349.3663	10.64058
349.5341	10.16819
349.7018	11.74399
349.8695	9.861087
350.0372	11.96595
350.2049	12.34703
350.3726	13.65857
350.5403	14.56129
350.7079	13.65695
350.8756	16.9852
351.0433	17.47982
351.211	12.06013
351.3786	13.43723
351.5463	22.29149
351.714	16.28433
351.8816	16.26074
352.0493	16.94474
352.2169	13.727
352.3846	13.86613
352.5522	11.00122
352.7198	13.49334
352.8875	21.2107
353.0551	15.33194
353.2227	13.04917
353.3903	15.30269
353.5579	11.05931
353.7255	15.32795
353.8931	17.671
354.0607	18.72184
354.2283	11.44945
354.3958	17.01081
354.5634	17.93074
354.731	19.21565
354.8986	18.75652
355.0661	12.61774
355.2337	18.09418
355.4012	15.56289
355.5688	17.7244
355.7363	14.61831
355.9039	15.70876
356.0714	18.4307
356.239	18.95131
356.4065	14.7852
356.574	9.430283
356.7415	14.20282
356.909	12.0481
357.0765	15.74434
357.244	18.26219
357.4115	17.43609
357.579	14.57081
357.7465	13.73486
357.914	13.27475
358.0815	15.49135
358.249	11.64345
358.4164	16.08952
358.5839	13.44345
358.7513	12.3497
358.9188	13.60648
359.0862	14.16757
359.2537	12.72315
359.4211	15.45036
359.5886	15.75067
359.756	20.12152
359.9234	17.11014
360.0909	18.23384
360.2583	20.35177
360.4257	18.12238
360.5931	15.18259
360.7605	14.19577
360.9279	16.76037
361.0953	14.20683
361.2627	16.19424
361.4301	18.65525
361.5974	18.39086
361.7648	17.89861
361.9322	15.5256
362.0995	12.85392
362.2669	16.13248
362.4343	16.92497
362.6016	17.43807
362.769	19.4957
362.9363	18.48036
363.1036	14.71948
363.271	12.80138
363.4383	13.91142
363.6056	22.21915
363.7729	18.49961
363.9402	21.90137
364.1075	22.23749
364.2748	17.1034
364.4421	21.14193
364.6094	15.85979
364.7767	13.97334
364.944	19.56155
365.1113	16.31599
365.2786	18.69204
365.4458	20.57916
365.6131	20.98162
365.7803	20.76838
365.9476	25.75464
366.1148	21.27277
366.2821	19.58506
366.4493	19.75985
366.6166	19.70186
366.7838	17.63404
366.951	19.93954
367.1182	24.56483
367.2855	22.40534
367.4527	17.29436
367.6199	18.03474
367.7871	22.31018
367.9543	22.22621
368.1215	19.68102
368.2886	17.16775
368.4558	21.69656
368.623	21.32537
368.7902	19.1967
368.9573	17.63131
369.1245	19.56782
369.2917	24.20585
369.4588	26.08363
369.6259	23.13706
369.7931	25.04467
369.9602	24.53322
370.1274	22.63855
370.2945	20.89891
370.4616	19.21612
370.6287	21.54539
370.7958	17.70611
370.963	19.61115
371.1301	17.77956
371.2971	21.90722
371.4643	22.34548
371.6313	24.18183
371.7984	21.23551
371.9655	22.6304
372.1326	22.72265
372.2997	22.99479
372.4667	23.09732
372.6338	24.31846
372.8008	23.08259
372.9679	22.25826
373.1349	20.01638
373.3019	16.70381
373.469	16.7554
373.636	20.86426
373.803	21.85338
373.9701	24.48557
374.1371	21.4674
374.3041	19.05498
374.4711	20.85317
374.6381	17.7459
374.8051	15.89024
374.9721	17.97131
375.1391	16.8046
375.3061	22.95815
375.473	30.30999
375.64	33.66893
375.8069	22.14273
375.9739	23.20349
376.1409	27.63561
376.3078	24.92005
376.4748	23.18494
376.6417	28.93416
376.8087	26.17346
376.9756	26.22807
377.1425	26.02657
377.3094	27.31547
377.4763	26.69736
377.6432	29.00839
377.8102	27.27965
377.9771	27.88511
378.144	33.00611
378.3109	26.31877
378.4777	27.17202
378.6446	26.49789
378.8115	20.18708
378.9784	23.99044
379.1452	26.2691
379.3121	21.78349
379.4789	22.70983
379.6458	18.23471
379.8127	19.41471
379.9795	21.62552
380.1463	26.99818
380.3131	31.59485
380.48	32.51178
380.6468	24.99391
380.8136	25.11858
380.9804	25.95566
381.1472	24.28552
381.314	26.2156
381.4808	29.64508
381.6476	23.15727
381.8144	25.28113
381.9812	24.81128
382.148	24.12951
382.3147	23.34874
382.4815	19.17588
382.6483	20.34975
382.815	19.64589
382.9818	21.00025
383.1485	25.68607
383.3153	21.93091
383.482	17.86655
383.6487	19.50878
383.8155	20.56376
383.9822	23.13342
384.1489	23.57398
384.3156	25.61992
384.4823	26.91267
384.649	29.50594
384.8157	35.47325
384.9824	33.27529
385.1491	27.65641
385.3158	29.51538
385.4825	28.8465
385.6491	20.14741
385.8158	24.14127
385.9825	29.48172
386.1491	28.58337
386.3157	30.32013
386.4824	31.28747
386.649	27.54996
386.8157	30.67767
386.9823	28.38004
387.1489	23.24699
387.3156	28.42841
387.4821	31.12751
387.6488	29.89122
387.8154	30.71674
387.982	29.25806
388.1486	32.10369
388.3152	29.89943
388.4818	30.09862
388.6483	28.15195
388.8149	28.4583
388.9815	31.20478
389.148	29.26371
389.3146	33.59999
389.4811	32.85436
389.6477	30.27389
389.8142	36.40331
389.9808	37.97093
390.1473	31.26241
390.3138	33.42267
390.4804	30.99059
390.6469	29.70361
390.8134	33.41447
390.9799	34.3078
391.1464	35.30076
391.3129	30.77536
391.4794	32.17813
391.6459	36.46487
391.8124	39.8771
391.9789	36.2609
392.1453	30.5393
392.3118	30.55364
392.4782	29.16246
392.6447	22.19193
392.8112	21.21286
392.9776	23.12045
393.144	24.60363
393.3105	16.72584
393.4769	24.14811
393.6433	20.41051
393.8098	25.19981
393.9762	27.2905
394.1426	28.88041
394.309	35.48798
394.4754	34.7041
394.6418	37.36676
394.8082	34.35075
394.9746	37.29679
395.141	39.66805
395.3073	41.06477
395.4737	38.47797
395.64	40.79641
395.8064	42.17919
395.9728	40.90807
396.1391	40.26983
396.3055	28.63676
396.4718	31.10011
396.6381	27.57727
396.8045	20.10011
396.9708	22.93799
397.1371	26.73848
397.3034	30.95429
397.4697	35.69205
397.636	37.04811
397.8023	45.11817
397.9686	47.19283
398.1349	43.87149
398.3012	45.63081
398.4675	43.12361
398.6337	45.448
398.8	48.81382
398.9662	47.55326
399.1325	49.1907
399.2988	48.42522
399.465	41.80934
399.6313	41.53801
399.7975	42.49727
399.9637	49.83195
400.1299	52.10343
400.2961	54.77981
400.4624	56.06091
400.6286	52.20422
400.7948	48.53753
400.961	47.35399
401.1272	46.90467
401.2934	55.52558
401.4595	50.48553
401.6257	53.66674
401.7919	52.27198
401.9581	53.82367
402.1242	51.79468
402.2904	55.79564
402.4565	58.80981
402.6227	56.22327
402.7888	56.53048
402.955	47.92949
403.1211	52.79484
403.2872	51.52458
403.4533	49.56591
403.6194	54.9732
403.7856	55.50126
403.9517	55.32481
404.1177	59.13899
404.2838	54.89735
404.4499	46.00563
404.616	45.99477
404.7821	47.46859
404.9482	50.54558
405.1142	53.77443
405.2803	58.38527
405.4464	58.16571
405.6124	48.13079
405.7784	51.80853
405.9445	51.46334
406.1105	53.6725
406.2766	52.67262
406.4426	53.43983
406.6086	52.44769
406.7746	52.96846
406.9406	57.28325
407.1066	60.82148
407.2726	55.40238
407.4386	57.02547
407.6046	55.76939
407.7706	49.05677
407.9366	55.62501
408.1025	57.51526
408.2685	59.89121
408.4344	62.81699
408.6004	62.47942
408.7664	63.17038
408.9323	61.92433
409.0983	61.51781
409.2642	66.31197
409.4301	66.91132
409.596	65.89077
409.762	62.56747
409.9279	53.84616
410.0938	54.96291
410.2597	56.75341
410.4256	55.40177
410.5915	61.0717
410.7574	69.47063
410.9232	64.43731
411.0891	62.30654
411.255	67.67452
411.4209	64.71077
411.5867	62.90081
411.7526	72.67949
411.9184	71.00187
412.0843	64.89169
412.2501	59.7527
412.4159	69.72418
412.5818	64.34395
412.7476	63.80785
412.9134	67.59394
413.0792	60.76802
413.245	59.11698
413.4108	58.84519
413.5766	63.54895
413.7424	65.41841
413.9082	67.44685
414.074	69.64118
414.2397	65.51907
414.4055	64.32169
414.5713	64.76423
414.737	63.41449
414.9028	64.62787
415.0685	70.25383
415.2343	68.93235
415.4	70.07629
415.5658	68.40483
415.7315	63.71659
415.8972	69.88437
416.0629	76.46437
416.2286	74.99711
416.3943	73.184
416.56	72.99721
416.7257	67.45813
416.8914	71.73306
417.0571	66.5698
417.2228	65.99806
417.3884	63.29329
417.5541	63.68683
417.7198	68.70984
417.8854	69.73608
418.0511	69.31973
418.2167	65.38548
418.3824	73.51492
418.548	76.53977
418.7136	75.60068
418.8792	71.17706
419.0449	70.23913
419.2105	73.88289
419.3761	68.11835
419.5417	69.40307
419.7073	68.37718
419.8729	72.78056
420.0385	69.75904
420.204	70.54218
420.3696	71.38609
420.5352	74.75987
420.7007	77.68418
420.8663	80.75677
421.0319	79.29034
421.1974	84.4716
421.3629	78.77386
421.5285	75.44842
421.694	73.5942
421.8595	81.66753
422.0251	83.81361
422.1906	83.13228
422.3561	85.00865
422.5216	71.41525
422.6871	64.91329
422.8526	71.92599
423.0181	78.58685
423.1835	77.87167
423.349	74.31881
423.5145	76.08598
423.68	77.96801
423.8454	74.57997
424.0109	79.23438
424.1763	83.06577
424.3418	84.3074
424.5072	80.63079
424.6726	81.92879
424.838	78.89813
425.0035	79.31281
425.1689	80.95609
425.3343	79.78642
425.4997	80.87229
425.6651	84.14698
425.8305	81.68145
425.9959	82.41388
426.1613	76.68012
426.3267	82.77481
426.492	84.67982
426.6574	89.37373
426.8228	86.85339
426.9881	82.90499
427.1534	78.09114
427.3188	76.77534
427.4841	73.47021
427.6495	82.31647
427.8148	85.15091
427.9801	83.84808
428.1454	84.70255
428.3107	83.93707
428.476	80.47018
428.6414	77.10181
428.8066	73.20583
428.9719	82.47514
429.1372	80.19813
429.3025	81.43504
429.4678	78.85303
429.633	75.41335
429.7983	68.60029
429.9636	62.30127
430.1288	60.5921
430.294	60.18624
430.4593	62.52256
430.6245	63.2463
430.7897	67.19611
430.955	65.03066
431.1202	63.2417
431.2854	70.97446
431.4506	79.39246
431.6158	87.33503
431.781	89.83615
431.9462	97.38172
432.1114	91.72758
432.2766	86.30863
432.4417	77.32724
432.6069	77.08548
432.772	80.95056
432.9372	96.16521
433.1024	97.30758
433.2675	99.79086
433.4326	98.18225
433.5977	93.65298
433.7629	84.48746
433.928	76.132
434.0931	71.51934
434.2582	77.51065
434.4233	86.59724
434.5884	94.44324
434.7535	94.57288
434.9186	101.3756
435.0837	98.14096
435.2488	93.09572
435.4138	86.31107
435.5789	93.39182
435.744	103.0856
435.909	101.5598
436.0741	104.292
436.2391	101.5215
436.4042	108.3641
436.5692	106.2007
436.7342	106.0308
436.8992	105.463
437.0643	100.6478
437.2293	99.12197
437.3943	99.26279
437.5593	101.8436
437.7243	94.19236
437.8893	101.1013
438.0542	101.0277
438.2192	93.4231
438.3842	90.04231
438.5491	93.07059
438.7141	98.75372
438.8791	100.8366
439.044	101.1906
439.209	102.8778
439.3739	109.0617
439.5388	103.4063
439.7037	105.5708
439.8687	107.4126
440.0336	103.3374
440.1985	105.9413
440.3634	100.6744
440.5283	99.04085
440.6932	103.5183
440.8581	106.4701
441.0229	113.6871
441.1878	115.5294
441.3527	108.2988
441.5175	114.7742
441.6824	116.7596
441.8472	116.9627
442.0121	114.9429
442.1769	118.4366
442.3418	116.4262
442.5066	117.9607
442.6714	116.8949
442.8362	121.9863
443.001	114.8912
443.1659	121.9064
443.3307	114.3477
443.4955	110.7564
443.6602	124.6644
443.825	120.9723
443.9898	122.9292
444.1546	118.0714
444.3193	118.7524
444.4841	121.4518
444.6488	116.4887
444.8136	123.6198
444.9783	119.149
445.1431	126.7591
445.3078	118.9886
445.4725	110.382
445.6372	111.5507
445.802	108.3712
445.9667	108.7037
446.1314	113.2479
446.2961	113.4569
446.4608	121.2366
446.6255	124.3247
446.7901	129.306
446.9548	122.837
447.1195	123.4412
447.2841	119.9807
447.4488	125.0031
447.6134	135.0326
447.7781	134.1077
447.9427	127.4739
448.1074	121.996
448.272	121.1836
448.4366	123.3797
448.6012	130.4865
448.7658	132.5068
448.9305	130.5401
449.095	129.9321
449.2596	127.6484
449.4242	126.6984
449.5888	129.3723
449.7534	129.1832
449.9179	135.8957
450.0825	137.4776
450.2471	138.149
450.4116	139.0408
450.5762	144.9829
450.7407	141.6555
450.9052	138.1898
451.0698	139.4249
451.2343	140.8857
451.3988	138.4981
451.5633	135.0477
451.7278	141.0221
451.8923	140.1763
452.0568	137.6756
452.2213	140.9908
452.3858	143.5522
452.5503	131.8783
452.7148	125.3147
452.8792	121.3589
453.0437	121.0504
453.2081	128.109
453.3726	130.0025
453.537	132.1598
453.7015	136.2031
453.8659	140.7183
454.0303	144.9261
454.1947	144.2245
454.3592	139.4165
454.5236	137.8426
454.688	137.8775
454.8524	133.4665
455.0168	126.9994
455.1811	136.0536
455.3455	136.6503
455.5099	138.5641
455.6743	140.0411
455.8386	144.5612
456.003	152.4569
456.1673	148.5592
456.3317	146.4287
456.496	140.3003
456.6603	146.7969
456.8246	144.8347
456.989	146.1966
457.1533	147.2428
457.3176	142.098
457.4819	149.2201
457.6462	149.8026
457.8105	152.7094
457.9748	148.5142
458.1391	142.1695
458.3033	136.3409
458.4676	140.1577
458.6319	143.7291
458.7961	143.1282
458.9604	145.885
459.1246	143.4343
459.2888	142.74
459.4531	139.5725
459.6173	138.2285
459.7815	137.1019
459.9457	143.9556
460.11	146.6708
460.2741	146.8632
460.4384	149.2781
460.6025	143.4908
460.7667	150.2555
460.9309	148.7241
461.0951	148.5794
461.2592	147.7877
461.4234	150.1072
461.5876	151.5635
461.7517	146.5892
461.9159	152.7337
462.08	153.7092
462.2441	151.2592
462.4082	157.2245
462.5724	160.1626
462.7365	157.9201
462.9006	156.7191
463.0647	151.4354
463.2288	148.8182
463.3929	153.1103
463.557	153.7137
463.721	148.8766
463.8851	149.2321
464.0492	150.8217
464.2132	151.2977
464.3773	149.4168
464.5414	145.9978
464.7054	139.8971
464.8694	143.0681
465.0334	146.6696
465.1975	146.8761
465.3615	156.5352
465.5255	155.7702
465.6895	150.3207
465.8535	147.066
466.0175	157.62
466.1815	158.3139
466.3455	148.0723
466.5095	144.2068
466.6734	148.3456
466.8374	146.5106
467.0014	147.5
467.1653	152.3048
467.3293	155.8526
467.4932	151.9337
467.6571	153.3048
467.8211	157.3778
467.985	154.7008
468.1489	149.2729
468.3128	159.5018
468.4767	158.5597
468.6406	154.814
468.8045	152.8857
468.9684	150.4118
469.1323	157.6341
469.2962	163.4966
469.46	161.623
469.6239	158.4504
469.7878	155.1803
469.9516	157.5954
470.1154	153.1176
470.2793	147.9706
470.4431	148.5721
470.607	147.8158
470.7708	155.7876
470.9346	157.4668
471.0984	159.7785
471.2622	158.362
471.426	157.248
471.5898	165.4626
471.7536	166.1058
471.9174	167.4478
472.0811	172.3344
472.2449	168.4871
472.4087	169.1259
472.5724	163.7603
472.7362	152.9994
472.8999	153.8122
473.0637	151.6639
473.2274	152.7375
473.3911	151.9056
473.5548	155.6604
473.7185	154.7729
473.8822	158.3357
474.0459	167.6023
474.2096	165.6126
474.3733	163.751
474.537	163.2851
474.7007	164.229
474.8643	163.6812
475.028	166.9229
475.1917	164.9418
475.3553	158.7807
475.519	161.7823
475.6826	159.1731
475.8463	167.7695
476.0099	166.6232
476.1735	160.7716
476.3371	159.7947
476.5007	153.5556
476.6643	157.0553
476.8279	159.7258
476.9915	157.7342
477.1551	164.7641
477.3187	158.0071
477.4823	165.039
477.6458	166.9194
477.8094	172.874
477.9729	170.8156
478.1365	169.3214
478.3	166.8087
478.4636	160.2699
478.6271	161.9484
478.7906	164.5022
478.9541	166.0159
479.1176	170.0674
479.2812	168.45
479.4447	171.9333
479.6082	166.3287
479.7716	167.6785
479.9351	174.5596
480.0986	173.6012
480.2621	172.6249
480.4255	170.5293
480.589	157.9791
480.7524	164.4578
480.9159	168.7076
481.0793	167.5528
481.2428	169.988
481.4062	170.3663
481.5696	165.5824
481.733	168.5095
481.8964	176.4515
482.0598	174.2773
482.2232	171.8382
482.3866	172.9332
482.55	170.8596
482.7134	174.4938
482.8768	174.318
483.0401	175.9593
483.2035	169.9009
483.3668	168.0859
483.5302	167.7822
483.6935	163.6751
483.8568	168.2871
484.0202	166.7701
484.1835	162.5919
484.3468	166.6758
484.5101	168.9248
484.6734	169.2652
484.8367	171.1878
485	169.3812
485.1633	168.0374
485.3266	163.2937
485.4899	157.1272
485.6531	157.4073
485.8164	153.7981
485.9796	143.3182
486.1429	131.6711
486.3061	127.3586
486.4694	141.4596
486.6326	152.3811
486.7958	164.3805
486.959	158.4904
487.1223	150.2293
487.2855	151.532
487.4486	160.7207
487.6118	162.8499
487.775	162.8311
487.9382	171.5836
488.1014	171.3611
488.2646	166.8091
488.4277	174.3622
488.5909	166.8775
488.754	171.0819
488.9171	164.9565
489.0803	160.5937
489.2434	158.4007
489.4066	168.0362
489.5697	186.4066
489.7328	181.2934
489.8959	178.1833
490.059	181.6146
490.2221	182.2477
490.3852	176.2697
490.5482	181.9603
490.7113	178.9364
490.8744	179.1737
491.0374	169.8484
491.2005	175.8575
491.3636	175.5343
491.5266	173.3808
491.6896	165.5554
491.8527	167.0418
492.0157	156.8615
492.1787	163.1751
492.3417	167.5257
492.5047	172.6682
492.6677	173.8383
492.8307	181.5301
492.9937	182.4018
493.1567	178.0071
493.3196	179.1744
493.4826	172.5022
493.6456	179.9049
493.8085	177.828
493.9715	168.8002
494.1344	174.6468
494.2974	169.6633
494.4603	180.3881
494.6232	180.4531
494.7861	186.7435
494.949	193.2764
495.1119	188.2221
495.2748	183.6354
495.4377	184.9956
495.6006	172.7475
495.7635	170.3219
495.9264	169.1107
496.0892	174.7178
496.2521	182.3251
496.4149	178.3972
496.5778	176.8242
496.7407	183.6592
496.9035	181.0792
497.0663	173.5454
497.2291	180.3052
497.3919	182.8806
497.5547	188.9122
497.7176	188.2687
497.8804	185.9601
498.0432	185.0953
498.2059	172.3811
498.3687	168.0391
498.5315	174.8407
498.6942	178.9713
498.857	182.0825
499.0198	185.9135
499.1825	181.8404
499.3452	182.6944
499.508	184.3466
499.6707	185.8906
499.8334	180.6421
499.9962	186.4188
500.1589	181.4302
500.3216	173.3311
500.4843	173.1722
500.6469	174.6574
500.8096	180.3497
500.9723	180.679
501.135	175.1569
501.2976	174.4014
501.4603	172.8373
501.623	172.3257
501.7856	175.4662
501.9482	177.0632
502.1109	177.231
502.2735	176.2284
502.4361	180.5576
502.5987	186.2769
502.7614	180.0535
502.924	190.2914
503.0865	194.5791
503.2491	199.5525
503.4117	193.0868
503.5743	184.7953
503.7368	184.162
503.8994	180.479
504.062	173.2716
504.2245	181.1136
504.3871	176.4193
504.5496	187.2163
504.7121	199.5842
504.8746	191.0307
505.0372	186.3009
505.1997	189.3291
505.3622	194.6359
505.5247	196.5923
505.6872	197.0561
505.8497	197.7959
506.0121	202.0479
506.1746	201.4085
506.3371	199.4397
506.4995	185.502
506.662	191.7735
506.8244	193.4844
506.9869	191.1736
507.1493	191.5366
507.3117	193.2816
507.4742	185.3228
507.6366	194.57
507.799	195.2423
507.9614	185.9149
508.1238	179.6733
508.2862	186.5214
508.4485	192.3262
508.6109	196.0372
508.7733	193.3343
508.9357	200.4159
509.098	196.3958
509.2604	196.6782
509.4227	198.4912
509.5851	197.4095
509.7474	193.8709
509.9097	190.0508
510.072	191.973
510.2343	194.1164
510.3966	191.3922
510.5589	196.6018
510.7212	189.0961
510.8835	186.39
511.0458	194.6422
511.2081	190.5997
511.3703	193.0376
511.5326	193.3427
511.6949	198.9187
511.8571	204.1661
512.0193	200.8971
512.1816	190.338
512.3438	185.9865
512.506	178.3028
512.6682	183.9485
512.8304	192.1113
512.9926	183.6492
513.1548	185.5128
513.317	193.8605
513.4792	192.1555
513.6414	191.3362
513.8035	192.0856
513.9657	188.3681
514.1279	191.3307
514.29	188.6357
514.4521	193.9929
514.6143	192.9017
514.7764	188.8307
514.9385	189.5194
515.1006	191.5059
515.2628	186.3779
515.4249	189.1171
515.587	189.6725
515.7491	194.4011
515.9111	193.5341
516.0732	198.7464
516.2353	195.545
