SPECTRUM DATA FILE
SpectrumCount:	1
PixelCount:	3648
UserName:	ToughBook User
SampleName:	
LightSource:	
Comments:	
DeviceName:	Qwave
DeviceManufacturer:	Broadcom
DeviceSerialNo:	11311

Name:	last spectrum
Date:	2024-05-02T15:03:21.8415161+02:00
ExposureTime:	0.02
TemporalAvg:	1
IntensityUnit:	normalizedCounts
CCDLoadLevel:	0.04776774
Temperature:	29.23276
DiagramColor:	200
ProcessingSteps:	335

Wavelength [nm]	Intensity1
334.421	15.20541
334.5891	15.6643
334.7573	12.70066
334.9254	9.858562
335.0935	9.020891
335.2616	10.31396
335.4297	9.458499
335.5978	7.087855
335.7659	10.61201
335.934	11.36884
336.1021	9.286194
336.2701	8.111964
336.4382	7.730733
336.6063	7.695237
336.7744	15.1254
336.9424	11.43445
337.1105	8.428088
337.2785	8.346177
337.4466	12.43653
337.6146	12.66059
337.7827	12.14858
337.9507	12.13285
338.1187	9.778525
338.2867	12.32958
338.4548	9.702351
338.6228	10.95521
338.7908	9.992875
338.9588	13.2458
339.1268	13.11149
339.2948	7.844592
339.4628	11.42606
339.6308	10.83782
339.7988	7.775959
339.9667	8.477129
340.1347	13.19631
340.3027	13.26141
340.4707	12.97002
340.6386	17.8105
340.8066	15.83301
340.9745	16.72744
341.1425	15.07949
341.3104	12.39189
341.4784	12.60521
341.6463	11.39269
341.8142	13.05114
341.9821	17.26399
342.1501	15.9402
342.318	10.48365
342.4859	9.67001
342.6538	7.377737
342.8217	11.94362
342.9896	15.90207
343.1575	14.62376
343.3254	11.98359
343.4933	14.9695
343.6612	12.8233
343.829	12.38866
343.9969	15.78457
344.1648	12.66571
344.3326	17.6635
344.5005	16.67316
344.6683	17.07969
344.8362	8.366528
345.004	13.77941
345.1719	15.8685
345.3397	13.80341
345.5075	13.91865
345.6754	13.72755
345.8432	13.82509
346.011	10.01367
346.1788	13.97205
346.3466	14.89467
346.5144	9.601378
346.6822	12.94198
346.85	13.41316
347.0178	15.48898
347.1856	17.73658
347.3534	16.14696
347.5211	16.10521
347.6889	11.58321
347.8567	14.10735
348.0244	14.80266
348.1922	11.72723
348.3599	12.96089
348.5277	15.7493
348.6954	14.14651
348.8632	14.52985
349.0309	10.98034
349.1986	11.98397
349.3663	14.39052
349.5341	10.06553
349.7018	16.04152
349.8695	17.42219
350.0372	14.50556
350.2049	15.07398
350.3726	17.82591
350.5403	15.58418
350.7079	13.45553
350.8756	10.90849
351.0433	13.8939
351.211	17.84939
351.3786	9.797015
351.5463	10.86991
351.714	20.57976
351.8816	15.73512
352.0493	17.70207
352.2169	11.8577
352.3846	11.86621
352.5522	13.08423
352.7198	15.7799
352.8875	14.18498
353.0551	16.43094
353.2227	20.40825
353.3903	19.45424
353.5579	15.51065
353.7255	14.082
353.8931	19.60571
354.0607	17.36873
354.2283	12.96206
354.3958	16.68573
354.5634	16.57523
354.731	14.45883
354.8986	12.9947
355.0661	17.15024
355.2337	16.35672
355.4012	13.61121
355.5688	19.05027
355.7363	18.70587
355.9039	12.96023
356.0714	16.98555
356.239	17.52063
356.4065	14.76672
356.574	19.50151
356.7415	16.90734
356.909	17.97572
357.0765	16.25385
357.244	21.07505
357.4115	17.89726
357.579	14.95552
357.7465	11.79418
357.914	12.67354
358.0815	13.86362
358.249	14.94146
358.4164	14.28606
358.5839	15.33207
358.7513	11.59002
358.9188	12.95099
359.0862	20.25473
359.2537	17.65387
359.4211	14.10268
359.5886	21.24009
359.756	19.15905
359.9234	20.23261
360.0909	19.35899
360.2583	18.62525
360.4257	18.21815
360.5931	14.58766
360.7605	15.9043
360.9279	16.928
361.0953	12.53797
361.2627	17.64501
361.4301	18.14326
361.5974	12.02118
361.7648	16.11295
361.9322	21.41824
362.0995	19.69042
362.2669	22.03633
362.4343	22.45331
362.6016	23.40543
362.769	26.11553
362.9363	21.14426
363.1036	20.58313
363.271	17.20542
363.4383	22.34638
363.6056	16.34139
363.7729	18.08066
363.9402	18.92173
364.1075	15.73021
364.2748	21.62142
364.4421	19.37685
364.6094	20.27391
364.7767	24.88531
364.944	21.4052
365.1113	18.57679
365.2786	26.43637
365.4458	32.28561
365.6131	23.9006
365.7803	21.56063
365.9476	21.40333
366.1148	21.9742
366.2821	19.95789
366.4493	20.5403
366.6166	24.34981
366.7838	19.61539
366.951	24.14746
367.1182	22.58469
367.2855	21.51701
367.4527	23.70337
367.6199	19.64687
367.7871	26.98201
367.9543	21.64559
368.1215	24.23186
368.2886	20.67067
368.4558	21.32644
368.623	22.35418
368.7902	24.5332
368.9573	23.68075
369.1245	18.45105
369.2917	19.10488
369.4588	19.19158
369.6259	17.4492
369.7931	21.57283
369.9602	23.17716
370.1274	19.52017
370.2945	19.74275
370.4616	21.00435
370.6287	19.81858
370.7958	20.28687
370.963	21.80573
371.1301	16.8972
371.2971	29.51981
371.4643	31.40124
371.6313	25.36366
371.7984	26.0457
371.9655	23.83481
372.1326	19.67281
372.2997	19.4281
372.4667	24.16902
372.6338	22.25586
372.8008	22.3527
372.9679	21.92172
373.1349	19.18013
373.3019	21.29492
373.469	18.4386
373.636	18.75782
373.803	21.85115
373.9701	21.29831
374.1371	21.97395
374.3041	25.07305
374.4711	21.57507
374.6381	22.27111
374.8051	21.50308
374.9721	22.29041
375.1391	22.0872
375.3061	26.83735
375.473	22.49346
375.64	23.57673
375.8069	27.25481
375.9739	24.44201
376.1409	26.69828
376.3078	24.80401
376.4748	24.08119
376.6417	23.29808
376.8087	22.68596
376.9756	24.81177
377.1425	29.14413
377.3094	30.29994
377.4763	27.49774
377.6432	27.71655
377.8102	29.46379
377.9771	33.55124
378.144	33.77331
378.3109	31.67833
378.4777	33.26656
378.6446	31.40345
378.8115	31.85488
378.9784	23.05816
379.1452	22.26322
379.3121	24.45846
379.4789	23.34708
379.6458	26.71545
379.8127	21.86355
379.9795	25.79359
380.1463	30.79696
380.3131	30.3229
380.48	30.70963
380.6468	25.87991
380.8136	30.35567
380.9804	30.92592
381.1472	30.44397
381.314	30.66583
381.4808	29.33987
381.6476	27.74506
381.8144	26.56587
381.9812	23.3157
382.148	26.06749
382.3147	27.71637
382.4815	26.21542
382.6483	21.67293
382.815	23.54574
382.9818	28.36741
383.1485	17.96291
383.3153	21.40945
383.482	22.03803
383.6487	24.17428
383.8155	29.79659
383.9822	25.39425
384.1489	25.15509
384.3156	27.60246
384.4823	30.51777
384.649	34.23847
384.8157	31.71468
384.9824	29.60631
385.1491	31.60975
385.3158	31.83603
385.4825	30.88157
385.6491	32.44223
385.8158	28.7645
385.9825	28.23317
386.1491	31.95485
386.3157	33.20736
386.4824	32.60962
386.649	31.0412
386.8157	28.29796
386.9823	27.86366
387.1489	27.86252
387.3156	29.57602
387.4821	30.62141
387.6488	29.86686
387.8154	27.10221
387.982	30.04372
388.1486	28.52255
388.3152	26.95124
388.4818	27.67075
388.6483	26.43836
388.8149	28.06176
388.9815	28.88866
389.148	28.85666
389.3146	30.72593
389.4811	34.23613
389.6477	31.95271
389.8142	33.94533
389.9808	35.5419
390.1473	38.73962
390.3138	36.50524
390.4804	36.26807
390.6469	35.90247
390.8134	39.69872
390.9799	35.80367
391.1464	39.57258
391.3129	41.93175
391.4794	40.46839
391.6459	35.342
391.8124	32.74078
391.9789	35.51962
392.1453	38.88913
392.3118	35.90542
392.4782	36.30008
392.6447	30.37131
392.8112	28.17504
392.9776	28.10865
393.144	21.83268
393.3105	18.6158
393.4769	19.28499
393.6433	23.15867
393.8098	26.61999
393.9762	26.40097
394.1426	25.44261
394.309	31.17324
394.4754	37.23222
394.6418	37.63765
394.8082	40.978
394.9746	42.14799
395.141	44.94501
395.3073	42.85652
395.4737	41.29022
395.64	40.07222
395.8064	41.78879
395.9728	40.6786
396.1391	37.69424
396.3055	32.10134
396.4718	30.59802
396.6381	26.83488
396.8045	26.09388
396.9708	23.14339
397.1371	28.91453
397.3034	31.77425
397.4697	34.73243
397.636	37.57534
397.8023	41.25822
397.9686	46.35838
398.1349	44.91478
398.3012	47.39138
398.4675	49.04851
398.6337	51.05378
398.8	48.4992
398.9662	50.67659
399.1325	55.59116
399.2988	52.62466
399.465	50.52641
399.6313	50.04244
399.7975	48.22852
399.9637	56.84948
400.1299	57.05799
400.2961	55.6545
400.4624	53.73602
400.6286	51.99093
400.7948	53.40961
400.961	55.19791
401.1272	53.8341
401.2934	61.919
401.4595	61.2757
401.6257	59.8005
401.7919	57.03505
401.9581	54.00808
402.1242	59.20239
402.2904	61.34914
402.4565	60.33233
402.6227	62.0018
402.7888	61.23029
402.955	55.44722
403.1211	56.15475
403.2872	49.08749
403.4533	58.77933
403.6194	55.36695
403.7856	61.95658
403.9517	63.42648
404.1177	61.51222
404.2838	59.37975
404.4499	56.63728
404.616	51.56368
404.7821	52.87343
404.9482	57.86169
405.1142	67.94731
405.2803	60.02845
405.4464	58.79081
405.6124	60.7238
405.7784	62.46005
405.9445	60.50127
406.1105	63.75684
406.2766	57.97305
406.4426	56.69833
406.6086	56.7466
406.7746	61.7254
406.9406	59.64334
407.1066	60.43903
407.2726	62.12757
407.4386	61.29898
407.6046	59.04713
407.7706	61.42537
407.9366	63.0857
408.1025	66.00194
408.2685	70.10602
408.4344	65.61089
408.6004	68.27402
408.7664	77.08136
408.9323	68.69293
409.0983	71.07135
409.2642	65.79207
409.4301	71.198
409.596	70.60572
409.762	69.47649
409.9279	63.36653
410.0938	56.60624
410.2597	54.86982
410.4256	62.38988
410.5915	65.24093
410.7574	71.86993
410.9232	66.21384
411.0891	74.9148
411.255	71.44379
411.4209	74.70168
411.5867	79.41443
411.7526	69.63766
411.9184	70.37905
412.0843	72.73005
412.2501	75.05605
412.4159	78.32085
412.5818	75.02209
412.7476	81.33759
412.9134	71.12411
413.0792	73.94344
413.245	71.34547
413.4108	68.7617
413.5766	68.99619
413.7424	74.53045
413.9082	76.5642
414.074	78.93174
414.2397	72.21676
414.4055	71.18833
414.5713	77.67655
414.737	83.69936
414.9028	83.29055
415.0685	78.11655
415.2343	76.75068
415.4	76.26357
415.5658	79.84883
415.7315	75.98125
415.8972	72.67599
416.0629	77.1216
416.2286	80.24328
416.3943	81.4612
416.56	79.71112
416.7257	78.20837
416.8914	77.20657
417.0571	75.77692
417.2228	73.56266
417.3884	72.39892
417.5541	70.25233
417.7198	73.13864
417.8854	74.05926
418.0511	76.95641
418.2167	74.82395
418.3824	76.616
418.548	77.17593
418.7136	80.38042
418.8792	75.29242
419.0449	77.21862
419.2105	85.52027
419.3761	85.38675
419.5417	76.50638
419.7073	74.64748
419.8729	68.94566
420.0385	74.08804
420.204	77.42847
420.3696	79.22935
420.5352	80.28261
420.7007	81.63174
420.8663	81.50618
421.0319	90.33066
421.1974	91.67483
421.3629	90.89095
421.5285	87.41111
421.694	84.14385
421.8595	91.4124
422.0251	92.25526
422.1906	92.9753
422.3561	85.56701
422.5216	79.38052
422.6871	70.8436
422.8526	81.85167
423.0181	85.35925
423.1835	91.27738
423.349	85.53371
423.5145	82.71696
423.68	84.11277
423.8454	85.79501
424.0109	86.40604
424.1763	95.30177
424.3418	97.36615
424.5072	95.75965
424.6726	94.93655
424.838	89.95055
425.0035	84.42754
425.1689	83.94735
425.3343	83.59472
425.4997	87.2415
425.6651	88.70013
425.8305	87.7895
425.9959	80.24261
426.1613	83.37665
426.3267	88.66492
426.492	92.30275
426.6574	99.1465
426.8228	94.04515
426.9881	88.0364
427.1534	80.11497
427.3188	78.20316
427.4841	80.41233
427.6495	86.68147
427.8148	81.6673
427.9801	90.74078
428.1454	86.72972
428.3107	90.01518
428.476	86.52866
428.6414	88.76821
428.8066	86.54835
428.9719	84.9808
429.1372	78.61005
429.3025	83.18552
429.4678	86.62977
429.633	80.13314
429.7983	75.84732
429.9636	71.39793
430.1288	65.35918
430.294	64.65244
430.4593	69.19082
430.6245	73.72695
430.7897	69.77805
430.955	69.91801
431.1202	63.91557
431.2854	71.63024
431.4506	86.1822
431.6158	99.57279
431.781	102.5234
431.9462	103.4843
432.1114	102.3881
432.2766	97.11205
432.4417	84.68285
432.6069	82.09523
432.772	92.33873
432.9372	101.5106
433.1024	107.2046
433.2675	106.7423
433.4326	103.4545
433.5977	104.6954
433.7629	93.9444
433.928	86.35221
434.0931	81.55211
434.2582	83.00127
434.4233	97.12346
434.5884	99.75161
434.7535	105.2548
434.9186	108.3624
435.0837	101.5405
435.2488	94.30862
435.4138	100.6709
435.5789	108.3686
435.744	106.4125
435.909	104.7434
436.0741	113.2167
436.2391	111.9385
436.4042	115.9766
436.5692	118.1591
436.7342	115.0806
436.8992	110.2133
437.0643	111.5874
437.2293	110.0744
437.3943	108.3594
437.5593	109.8633
437.7243	109.6296
437.8893	111.6099
438.0542	113.4041
438.2192	107.6979
438.3842	90.65474
438.5491	95.42372
438.7141	102.4402
438.8791	104.303
439.044	113.1998
439.209	110.1753
439.3739	116.589
439.5388	114.4609
439.7037	121.8146
439.8687	118.9042
440.0336	118.465
440.1985	114.7483
440.3634	108.7591
440.5283	104.4336
440.6932	105.6629
440.8581	113.1154
441.0229	126.7716
441.1878	130.0629
441.3527	121.7896
441.5175	118.2022
441.6824	116.5462
441.8472	128.8341
442.0121	128.5436
442.1769	124.3091
442.3418	126.4865
442.5066	125.023
442.6714	128.5389
442.8362	131.7761
443.001	128.8244
443.1659	131.4319
443.3307	127.7898
443.4955	124.1781
443.6602	120.2141
443.825	131.5992
443.9898	141.7386
444.1546	131.1576
444.3193	122.93
444.4841	126.8903
444.6488	135.2602
444.8136	134.9155
444.9783	133.5132
445.1431	136.9905
445.3078	130.051
445.4725	120.1605
445.6372	122.2746
445.802	123.8598
445.9667	122.2894
446.1314	122.1071
446.2961	125.8634
446.4608	133.3249
446.6255	133.5654
446.7901	129.5668
446.9548	131.5172
447.1195	126.5888
447.2841	136.6615
447.4488	143.2356
447.6134	139.3892
447.7781	141.05
447.9427	138.834
448.1074	134.536
448.272	132.5038
448.4366	139.7225
448.6012	143.5036
448.7658	143.4122
448.9305	141.7046
449.095	135.3932
449.2596	136.9377
449.4242	138.7494
449.5888	140.2519
449.7534	139.4486
449.9179	140.5803
450.0825	148.5164
450.2471	145.2486
450.4116	154.648
450.5762	154.8924
450.7407	150.4566
450.9052	151.6586
451.0698	151.5425
451.2343	151.5225
451.3988	151.1387
451.5633	149.1379
451.7278	147.0587
451.8923	145.7382
452.0568	147.0767
452.2213	152.1477
452.3858	148.1438
452.5503	148.9173
452.7148	138.9319
452.8792	137.6426
453.0437	136.2238
453.2081	143.761
453.3726	144.9536
453.537	144.3179
453.7015	149.9688
453.8659	150.8686
454.0303	158.0195
454.1947	158.9778
454.3592	156.322
454.5236	147.4472
454.688	148.3443
454.8524	146.1957
455.0168	143.3256
455.1811	140.8638
455.3455	148.9529
455.5099	141.5208
455.6743	145.9008
455.8386	151.9178
456.003	159.1815
456.1673	155.7132
456.3317	158.472
456.496	158.1876
456.6603	154.6098
456.8246	158.727
456.989	159.4572
457.1533	162.8061
457.3176	156.2372
457.4819	159.6936
457.6462	157.7413
457.8105	161.1615
457.9748	150.0731
458.1391	146.6324
458.3033	151.3416
458.4676	151.8428
458.6319	143.4091
458.7961	148.0033
458.9604	157.6354
459.1246	161.1901
459.2888	160.1511
459.4531	153.7659
459.6173	152.4138
459.7815	154.618
459.9457	147.6711
460.11	155.6879
460.2741	156.8728
460.4384	155.7785
460.6025	153.5545
460.7667	163.2306
460.9309	159.8536
461.0951	162.5663
461.2592	159.8088
461.4234	155.4832
461.5876	156.6601
461.7517	157.1303
461.9159	153.8955
462.08	163.4715
462.2441	167.5854
462.4082	164.1791
462.5724	155.0725
462.7365	155.1893
462.9006	158.2722
463.0647	164.7969
463.2288	169.2516
463.3929	167.3217
463.557	162.7832
463.721	158.1253
463.8851	164.285
464.0492	156.4228
464.2132	164.4741
464.3773	156.1247
464.5414	155.5269
464.7054	154.1171
464.8694	157.6172
465.0334	158.4588
465.1975	157.7827
465.3615	160.6392
465.5255	159.022
465.6895	162.0303
465.8535	163.6779
466.0175	168.6142
466.1815	168.502
466.3455	167.8866
466.5095	163.9406
466.6734	154.1003
466.8374	156.1631
467.0014	157.066
467.1653	158.8067
467.3293	160.4026
467.4932	164.1964
467.6571	162.979
467.8211	163.5225
467.985	163.2047
468.1489	157.4135
468.3128	163.7308
468.4767	164.2904
468.6406	167.7079
468.8045	171.8431
468.9684	167.3471
469.1323	164.0913
469.2962	164.3516
469.46	177.0839
469.6239	171.7353
469.7878	166.2725
469.9516	159.2198
470.1154	157.7447
470.2793	155.6883
470.4431	153.132
470.607	159.4593
470.7708	160.4581
470.9346	160.2724
471.0984	167.4253
471.2622	170.3249
471.426	168.9565
471.5898	178.9585
471.7536	173.5249
471.9174	175.3833
472.0811	179.8937
472.2449	178.2345
472.4087	174.8191
472.5724	179.7538
472.7362	171.5975
472.8999	169.5534
473.0637	168.252
473.2274	172.4714
473.3911	174.545
473.5548	169.5439
473.7185	166.4788
473.8822	174.1982
474.0459	169.401
474.2096	167.6124
474.3733	179.349
474.537	175.1427
474.7007	178.1604
474.8643	172.1151
475.028	171.6749
475.1917	177.4361
475.3553	170.3703
475.519	164.448
475.6826	170.0921
475.8463	169.6928
476.0099	172.4126
476.1735	169.2781
476.3371	170.3576
476.5007	167.7718
476.6643	167.3077
476.8279	164.5914
476.9915	172.2394
477.1551	176.8236
477.3187	179.6474
477.4823	180.8024
477.6458	181.1635
477.8094	186.4829
477.9729	182.5741
478.1365	176.6447
478.3	172.3165
478.4636	167.6367
478.6271	167.4212
478.7906	174.7891
478.9541	174.6933
479.1176	176.346
479.2812	174.5924
479.4447	176.882
479.6082	176.6123
479.7716	175.0718
479.9351	175.3453
480.0986	175.2666
480.2621	177.0053
480.4255	179.781
480.589	176.3052
480.7524	180.9843
480.9159	181.7789
481.0793	176.4352
481.2428	175.3653
481.4062	175.5165
481.5696	179.1913
481.733	176.7365
481.8964	183.1381
482.0598	184.2906
482.2232	180.4182
482.3866	172.8456
482.55	171.6366
482.7134	180.1622
482.8768	184.6348
483.0401	179.0671
483.2035	176.6323
483.3668	181.5263
483.5302	178.2663
483.6935	179.6982
483.8568	183.9457
484.0202	174.5103
484.1835	172.9397
484.3468	174.3964
484.5101	180.2404
484.6734	174.9291
484.8367	170.7108
485	177.3446
485.1633	176.1935
485.3266	175.8999
485.4899	173.8504
485.6531	166.3716
485.8164	156.5728
485.9796	146.4624
486.1429	136.067
486.3061	134.3529
486.4694	147.0122
486.6326	166.1714
486.7958	171.1956
486.959	171.4196
487.1223	166.077
487.2855	162.3837
487.4486	169.7453
487.6118	170.1634
487.775	181.9606
487.9382	183.9075
488.1014	182.9426
488.2646	180.1772
488.4277	182.9319
488.5909	174.9766
488.754	168.3165
488.9171	172.4025
489.0803	170.2569
489.2434	171.9769
489.4066	184.0584
489.5697	190.4159
489.7328	191.0339
489.8959	185.7471
490.059	189.502
490.2221	181.921
490.3852	186.2997
490.5482	187.3327
490.7113	183.2993
490.8744	183.3354
491.0374	190.7193
491.2005	182.6795
491.3636	177.2562
491.5266	182.7517
491.6896	183.5294
491.8527	173.8707
492.0157	165.9819
492.1787	168.4818
492.3417	172.5259
492.5047	181.6603
492.6677	183.5818
492.8307	186.5434
492.9937	188.7606
493.1567	189.2636
493.3196	190.7409
493.4826	192.995
493.6456	183.7922
493.8085	184.1454
493.9715	177.4836
494.1344	181.5725
494.2974	187.5151
494.4603	194.3866
494.6232	185.8593
494.7861	192.357
494.949	191.4434
495.1119	192.5026
495.2748	196.0491
495.4377	190.159
495.6006	183.7719
495.7635	174.765
495.9264	181.0369
496.0892	180.2738
496.2521	182.7209
496.4149	195.5032
496.5778	195.4975
496.7407	190.0727
496.9035	192.9886
497.0663	192.8255
497.2291	197.4184
497.3919	197.3731
497.5547	194.8566
497.7176	196.9782
497.8804	190.578
498.0432	182.5107
498.2059	182.12
498.3687	180.5291
498.5315	179.6533
498.6942	183.3709
498.857	188.9878
499.0198	187.939
499.1825	189.0124
499.3452	190.6286
499.508	196.8979
499.6707	194.0428
499.8334	192.1471
499.9962	189.5627
500.1589	185.5374
500.3216	185.5799
500.4843	179.4698
500.6469	183.7068
500.8096	184.627
500.9723	188.3689
501.135	193.721
501.2976	190.1842
501.4603	178.6911
501.623	179.295
501.7856	183.1922
501.9482	182.3201
502.1109	191.4693
502.2735	194.0299
502.4361	193.6636
502.5987	189.1691
502.7614	189.5546
502.924	188.4901
503.0865	192.221
503.2491	192.8305
503.4117	196.0688
503.5743	195.3267
503.7368	188.5347
503.8994	183.997
504.062	181.0714
504.2245	181.2957
504.3871	186.95
504.5496	196.0822
504.7121	209.2789
504.8746	200.2584
505.0372	192.2639
505.1997	196.7862
505.3622	195.4747
505.5247	193.3005
505.6872	201.6539
505.8497	205.0428
506.0121	207.3257
506.1746	206.6024
506.3371	199.0418
506.4995	199.5399
506.662	196.0588
506.8244	189.5623
506.9869	198.1522
507.1493	203.1466
507.3117	196.6449
507.4742	201.695
507.6366	198.7352
507.799	195.9219
507.9614	187.2576
508.1238	181.123
508.2862	190.7053
508.4485	194.346
508.6109	205.1332
508.7733	207.7508
508.9357	202.7864
509.098	203.4783
509.2604	211.6619
509.4227	214.0161
509.5851	213.3667
509.7474	200.0278
509.9097	194.1152
510.072	195.4611
510.2343	200.3068
510.3966	205.1165
510.5589	200.3949
510.7212	201.8121
510.8835	199.4152
511.0458	194.8336
511.2081	199.1984
511.3703	202.9337
511.5326	208.2
511.6949	210.2731
511.8571	208.7167
512.0193	211.2376
512.1816	202.0589
512.3438	199.1248
512.506	189.6945
512.6682	185.2819
512.8304	193.5415
512.9926	198.5931
513.1548	192.3644
513.317	198.1483
513.4792	198.9103
513.6414	191.931
513.8035	193.4181
513.9657	191.3274
514.1279	185.1799
514.29	187.8041
514.4521	190.0915
514.6143	196.5787
514.7764	200.8488
514.9385	200.6129
515.1006	197.8756
515.2628	195.1797
515.4249	191.4554
515.587	198.4778
515.7491	201.4393
515.9111	201.0931
516.0732	201.7011
516.2353	201.852
516.3973	196.8416
