SPECTRUM DATA FILE
SpectrumCount:	1
PixelCount:	3648
UserName:	ToughBook User
SampleName:	
LightSource:	
Comments:	
DeviceName:	Qwave
DeviceManufacturer:	Broadcom
DeviceSerialNo:	11311

Name:	last spectrum
Date:	2024-05-02T15:02:37.8037833+02:00
ExposureTime:	0.02
TemporalAvg:	1
IntensityUnit:	normalizedCounts
CCDLoadLevel:	0.04930523
Temperature:	29.44586
DiagramColor:	200
ProcessingSteps:	335

Wavelength [nm]	Intensity1
334.421	5.890944
334.5891	9.771117
334.7573	11.5005
334.9254	10.31612
335.0935	14.3954
335.2616	12.64726
335.4297	10.20637
335.5978	13.18945
335.7659	9.091005
335.934	8.211028
336.1021	11.46558
336.2701	12.54292
336.4382	10.43225
336.6063	10.59593
336.7744	10.35524
336.9424	18.08533
337.1105	15.11444
337.2785	9.914155
337.4466	7.180952
337.6146	10.13813
337.7827	10.44441
337.9507	7.849788
338.1187	9.353564
338.2867	14.03938
338.4548	9.177701
338.6228	10.28961
338.7908	14.42649
338.9588	12.35852
339.1268	9.257657
339.2948	11.75251
339.4628	10.16405
339.6308	12.66884
339.7988	11.0431
339.9667	13.58671
340.1347	11.94065
340.3027	10.14662
340.4707	13.83126
340.6386	14.88287
340.8066	10.89623
340.9745	14.08608
341.1425	9.46845
341.3104	11.75512
341.4784	10.67584
341.6463	11.69138
341.8142	9.86961
341.9821	12.81581
342.1501	11.89248
342.318	15.30402
342.4859	16.31333
342.6538	12.06776
342.8217	16.75489
342.9896	13.76675
343.1575	15.2983
343.3254	12.86861
343.4933	14.08178
343.6612	14.88151
343.829	11.37325
343.9969	9.871717
344.1648	13.65453
344.3326	15.57271
344.5005	14.23183
344.6683	9.266958
344.8362	16.54431
345.004	13.69768
345.1719	14.14019
345.3397	18.07294
345.5075	16.39489
345.6754	12.97456
345.8432	12.5299
346.011	12.24803
346.1788	12.43302
346.3466	12.1335
346.5144	10.46117
346.6822	14.84185
346.85	13.55472
347.0178	11.38696
347.1856	13.97789
347.3534	9.238732
347.5211	11.3156
347.6889	12.23885
347.8567	11.84586
348.0244	10.84727
348.1922	12.97668
348.3599	14.98222
348.5277	16.3633
348.6954	9.607661
348.8632	13.40131
349.0309	13.38426
349.1986	9.946544
349.3663	11.01005
349.5341	10.95892
349.7018	10.27668
349.8695	9.483418
350.0372	12.25304
350.2049	15.03118
350.3726	13.67078
350.5403	12.5726
350.7079	11.63169
350.8756	12.27833
351.0433	13.17314
351.211	12.90706
351.3786	14.41188
351.5463	12.61732
351.714	13.93439
351.8816	13.59475
352.0493	14.90518
352.2169	13.45881
352.3846	15.66682
352.5522	13.7799
352.7198	18.08395
352.8875	12.36328
353.0551	18.85733
353.2227	16.78185
353.3903	14.60424
353.5579	14.1371
353.7255	13.44827
353.8931	15.98356
354.0607	15.30064
354.2283	11.77227
354.3958	14.89922
354.5634	19.14159
354.731	18.69891
354.8986	18.98668
355.0661	16.8779
355.2337	13.99987
355.4012	13.62436
355.5688	13.55694
355.7363	14.19588
355.9039	13.7295
356.0714	17.5336
356.239	16.47001
356.4065	17.36457
356.574	21.62239
356.7415	14.936
356.909	14.27391
357.0765	9.575729
357.244	13.99472
357.4115	12.96947
357.579	15.63766
357.7465	11.89812
357.914	13.49064
358.0815	15.56269
358.249	17.62429
358.4164	15.15292
358.5839	11.39297
358.7513	11.3701
358.9188	14.81322
359.0862	13.27481
359.2537	16.02018
359.4211	17.12259
359.5886	18.01945
359.756	20.21762
359.9234	18.07597
360.0909	15.5292
360.2583	12.33813
360.4257	17.94423
360.5931	18.53934
360.7605	19.47068
360.9279	16.44761
361.0953	17.6572
361.2627	18.26282
361.4301	19.48535
361.5974	17.5246
361.7648	14.42975
361.9322	9.914927
362.0995	15.90224
362.2669	14.63647
362.4343	21.0232
362.6016	20.02724
362.769	22.19279
362.9363	18.32503
363.1036	14.20418
363.271	15.38599
363.4383	16.74782
363.6056	16.50444
363.7729	20.55235
363.9402	16.40292
364.1075	16.68668
364.2748	19.34448
364.4421	21.00279
364.6094	15.98658
364.7767	18.35616
364.944	19.13892
365.1113	19.09348
365.2786	17.25311
365.4458	15.91602
365.6131	16.42915
365.7803	20.42666
365.9476	11.90941
366.1148	20.08935
366.2821	19.51106
366.4493	23.5953
366.6166	17.82941
366.7838	22.07766
366.951	23.24506
367.1182	23.02575
367.2855	17.32908
367.4527	24.77564
367.6199	23.4091
367.7871	22.77087
367.9543	22.03557
368.1215	19.94446
368.2886	18.25421
368.4558	25.00602
368.623	20.29553
368.7902	15.73431
368.9573	22.00244
369.1245	24.58648
369.2917	23.68505
369.4588	20.49047
369.6259	24.10509
369.7931	22.19133
369.9602	26.8015
370.1274	20.41426
370.2945	23.35497
370.4616	18.34333
370.6287	20.72943
370.7958	22.84254
370.963	24.6526
371.1301	20.78806
371.2971	25.14274
371.4643	26.15084
371.6313	26.07514
371.7984	22.6712
371.9655	20.73759
372.1326	21.37175
372.2997	19.26623
372.4667	15.9415
372.6338	24.26826
372.8008	22.57817
372.9679	26.03129
373.1349	22.90997
373.3019	20.31104
373.469	21.08734
373.636	20.99469
373.803	23.30549
373.9701	23.28512
374.1371	16.41524
374.3041	22.01564
374.4711	23.33242
374.6381	21.90081
374.8051	16.28698
374.9721	20.5757
375.1391	21.33339
375.3061	16.49094
375.473	18.25087
375.64	23.45251
375.8069	24.4613
375.9739	23.45226
376.1409	24.18153
376.3078	24.98779
376.4748	24.69462
376.6417	25.81478
376.8087	28.57054
376.9756	27.83599
377.1425	28.73775
377.3094	24.67635
377.4763	27.39477
377.6432	28.82346
377.8102	26.08663
377.9771	27.44533
378.144	26.87252
378.3109	28.62163
378.4777	28.97938
378.6446	26.82133
378.8115	26.63061
378.9784	19.12623
379.1452	22.14125
379.3121	20.93006
379.4789	23.89473
379.6458	23.02775
379.8127	24.75927
379.9795	23.98651
380.1463	27.21563
380.3131	21.02269
380.48	26.94362
380.6468	25.05161
380.8136	29.77765
380.9804	29.89487
381.1472	29.93798
381.314	25.1157
381.4808	26.06301
381.6476	25.50492
381.8144	26.9316
381.9812	24.04829
382.148	22.68539
382.3147	24.25535
382.4815	19.93193
382.6483	22.03041
382.815	21.76326
382.9818	23.42744
383.1485	16.78038
383.3153	16.54218
383.482	17.12544
383.6487	22.08683
383.8155	21.63342
383.9822	24.28531
384.1489	24.04884
384.3156	23.1502
384.4823	28.30756
384.649	29.39376
384.8157	28.8227
384.9824	26.69127
385.1491	26.94561
385.3158	28.34579
385.4825	27.51809
385.6491	26.16075
385.8158	26.91315
385.9825	24.19448
386.1491	29.32162
386.3157	35.50597
386.4824	35.5867
386.649	29.05556
386.8157	27.86388
386.9823	32.88071
387.1489	31.55003
387.3156	25.87421
387.4821	32.60341
387.6488	34.89368
387.8154	34.52628
387.982	31.90872
388.1486	34.01165
388.3152	33.46813
388.4818	27.89166
388.6483	26.45719
388.8149	29.66084
388.9815	25.64691
389.148	28.96609
389.3146	36.20002
389.4811	37.08558
389.6477	35.69888
389.8142	38.81754
389.9808	32.23065
390.1473	38.95851
390.3138	39.8819
390.4804	36.0599
390.6469	33.03545
390.8134	37.36066
390.9799	41.47173
391.1464	42.51191
391.3129	43.49039
391.4794	42.71445
391.6459	40.75747
391.8124	39.60903
391.9789	38.25683
392.1453	31.75162
392.3118	33.51018
392.4782	32.54824
392.6447	31.10395
392.8112	29.0325
392.9776	25.56214
393.144	22.65086
393.3105	19.26739
393.4769	17.59512
393.6433	20.7455
393.8098	23.72695
393.9762	29.44526
394.1426	31.66922
394.309	32.90316
394.4754	34.62188
394.6418	37.01323
394.8082	37.16553
394.9746	37.52437
395.141	38.3215
395.3073	37.32703
395.4737	39.6674
395.64	39.81219
395.8064	39.58596
395.9728	40.33739
396.1391	36.31184
396.3055	32.33168
396.4718	32.37695
396.6381	24.12946
396.8045	22.3194
396.9708	19.17519
397.1371	28.8303
397.3034	27.56364
397.4697	32.83091
397.636	37.92364
397.8023	47.35032
397.9686	45.98247
398.1349	43.80808
398.3012	48.34159
398.4675	49.14246
398.6337	49.72536
398.8	51.85238
398.9662	49.79237
399.1325	54.70422
399.2988	56.15304
399.465	52.17374
399.6313	52.96964
399.7975	53.70719
399.9637	54.40861
400.1299	51.94347
400.2961	53.10354
400.4624	58.81575
400.6286	49.46286
400.7948	53.17751
400.961	60.46694
401.1272	54.81682
401.2934	54.90182
401.4595	54.58044
401.6257	57.58101
401.7919	59.69333
401.9581	56.05396
402.1242	54.73759
402.2904	58.48507
402.4565	66.99282
402.6227	65.51337
402.7888	60.24471
402.955	57.22519
403.1211	56.80246
403.2872	49.17611
403.4533	51.2166
403.6194	54.22379
403.7856	59.856
403.9517	58.64277
404.1177	60.84613
404.2838	58.23904
404.4499	58.21233
404.616	54.67195
404.7821	55.46602
404.9482	58.70209
405.1142	57.58756
405.2803	59.11401
405.4464	59.49308
405.6124	55.91608
405.7784	56.97145
405.9445	55.95184
406.1105	53.48383
406.2766	53.85285
406.4426	58.98594
406.6086	53.19401
406.7746	60.6953
406.9406	61.44529
407.1066	59.33262
407.2726	58.41047
407.4386	57.86302
407.6046	59.68335
407.7706	58.13333
407.9366	54.9659
408.1025	66.31357
408.2685	68.91163
408.4344	66.89314
408.6004	68.34414
408.7664	67.17726
408.9323	70.3864
409.0983	69.10445
409.2642	75.0589
409.4301	73.32371
409.596	67.98607
409.762	64.57579
409.9279	58.76095
410.0938	53.57774
410.2597	58.11127
410.4256	65.39825
410.5915	65.56054
410.7574	74.1912
410.9232	72.63864
411.0891	69.66523
411.255	73.52875
411.4209	72.5591
411.5867	69.13444
411.7526	73.11945
411.9184	68.81595
412.0843	66.70869
412.2501	72.32396
412.4159	72.84455
412.5818	73.80888
412.7476	78.21971
412.9134	71.86932
413.0792	69.87904
413.245	67.43887
413.4108	66.30592
413.5766	70.79737
413.7424	76.00494
413.9082	79.99858
414.074	74.72063
414.2397	68.93034
414.4055	67.99786
414.5713	71.42674
414.737	77.9673
414.9028	71.8131
415.0685	68.86722
415.2343	79.84094
415.4	74.59805
415.5658	70.01335
415.7315	72.258
415.8972	74.47872
416.0629	79.13825
416.2286	80.14718
416.3943	85.92715
416.56	80.06016
416.7257	78.9296
416.8914	83.06984
417.0571	70.36386
417.2228	69.18304
417.3884	72.94781
417.5541	71.91151
417.7198	73.50369
417.8854	74.23067
418.0511	70.76574
418.2167	70.54169
418.3824	76.4864
418.548	77.93474
418.7136	72.24854
418.8792	76.85947
419.0449	71.25557
419.2105	82.00646
419.3761	86.29465
419.5417	81.3848
419.7073	73.46925
419.8729	73.09349
420.0385	76.58784
420.204	77.05192
420.3696	81.67897
420.5352	85.32175
420.7007	90.74324
420.8663	84.69344
421.0319	83.05023
421.1974	83.79073
421.3629	85.94225
421.5285	83.63528
421.694	84.72149
421.8595	87.96146
422.0251	90.37785
422.1906	84.52149
422.3561	80.66882
422.5216	72.56977
422.6871	71.37213
422.8526	80.19916
423.0181	87.61347
423.1835	91.03698
423.349	89.74755
423.5145	83.37111
423.68	79.64523
423.8454	78.29496
424.0109	85.20092
424.1763	86.88044
424.3418	86.71616
424.5072	90.24446
424.6726	90.43496
424.838	85.13741
425.0035	78.8203
425.1689	83.38467
425.3343	88.09582
425.4997	88.78587
425.6651	89.78528
425.8305	83.23615
425.9959	83.7891
426.1613	87.52222
426.3267	89.72058
426.492	98.0029
426.6574	93.85223
426.8228	86.34737
426.9881	84.51939
427.1534	78.17816
427.3188	83.45604
427.4841	82.45792
427.6495	84.47482
427.8148	88.43564
427.9801	95.08047
428.1454	90.22321
428.3107	90.69644
428.476	92.11947
428.6414	84.75803
428.8066	77.87142
428.9719	81.75734
429.1372	82.09613
429.3025	85.38912
429.4678	86.49103
429.633	87.4509
429.7983	79.87032
429.9636	68.46728
430.1288	66.75517
430.294	67.815
430.4593	65.30161
430.6245	67.00558
430.7897	62.49905
430.955	64.98958
431.1202	68.40824
431.2854	79.91112
431.4506	90.48248
431.6158	95.9247
431.781	103.8393
431.9462	109.3584
432.1114	103.1654
432.2766	88.94649
432.4417	83.17149
432.6069	78.60642
432.772	89.91077
432.9372	99.53365
433.1024	104.3431
433.2675	105.185
433.4326	102.5003
433.5977	97.81728
433.7629	89.38462
433.928	79.90087
434.0931	81.82738
434.2582	86.08805
434.4233	92.7213
434.5884	95.10117
434.7535	99.67076
434.9186	109.2452
435.0837	108.2874
435.2488	100.3684
435.4138	100.5221
435.5789	106.0823
435.744	106.3154
435.909	108.9186
436.0741	111.1497
436.2391	119.3805
436.4042	118.9912
436.5692	117.9455
436.7342	119.4975
436.8992	112.2417
437.0643	111.1667
437.2293	109.0027
437.3943	105.5256
437.5593	111.0458
437.7243	106.427
437.8893	110.2748
438.0542	112.1946
438.2192	99.80315
438.3842	92.21124
438.5491	90.04713
438.7141	101.6365
438.8791	111.2395
439.044	109.0368
439.209	110.6749
439.3739	112.7345
439.5388	114.3187
439.7037	114.4088
439.8687	121.0857
440.0336	116.4549
440.1985	108.7874
440.3634	108.625
440.5283	104.1428
440.6932	107.2101
440.8581	111.6917
441.0229	120.7892
441.1878	120.2289
441.3527	122.9601
441.5175	119.9089
441.6824	116.5268
441.8472	121.1658
442.0121	129.7781
442.1769	128.6444
442.3418	127.0107
442.5066	124.1111
442.6714	126.8153
442.8362	130.0751
443.001	128.0756
443.1659	125.0867
443.3307	119.4294
443.4955	127.3074
443.6602	125.525
443.825	123.9624
443.9898	126.875
444.1546	130.9691
444.3193	130.3882
444.4841	122.0241
444.6488	128.7402
444.8136	136.5692
444.9783	129.5261
445.1431	134.9879
445.3078	136.1152
445.4725	124.5223
445.6372	115.9466
445.802	116.8956
445.9667	123.1442
446.1314	125.6514
446.2961	131.786
446.4608	130.4483
446.6255	135.6356
446.7901	135.29
446.9548	132.8412
447.1195	138.1877
447.2841	138.7778
447.4488	138.8842
447.6134	141.38
447.7781	144.8763
447.9427	133.9429
448.1074	135.6249
448.272	133.1684
448.4366	138.6419
448.6012	141.2997
448.7658	152.0059
448.9305	143.5023
449.095	134.8899
449.2596	138.533
449.4242	138.787
449.5888	135.6824
449.7534	145.0979
449.9179	150.9683
450.0825	146.4609
450.2471	151.2204
450.4116	152.2158
450.5762	154.9331
450.7407	157.0897
450.9052	154.0548
451.0698	155.9562
451.2343	154.767
451.3988	148.0809
451.5633	148.9893
451.7278	149.2659
451.8923	147.8704
452.0568	154.9727
452.2213	149.1876
452.3858	141.1848
452.5503	145.9567
452.7148	138.918
452.8792	136.7009
453.0437	135.5528
453.2081	139.5482
453.3726	141.1482
453.537	136.5672
453.7015	144.0488
453.8659	150.2172
454.0303	155.044
454.1947	152.2693
454.3592	151.3956
454.5236	148.2929
454.688	143.3269
454.8524	149.238
455.0168	154.7375
455.1811	154.2026
455.3455	147.0425
455.5099	143.0122
455.6743	150.3053
455.8386	154.1327
456.003	154.2359
456.1673	154.8591
456.3317	157.3281
456.496	156.4823
456.6603	156.8115
456.8246	161.6742
456.989	160.7125
457.1533	161.9797
457.3176	160.4923
457.4819	158.1866
457.6462	154.9661
457.8105	153.3954
457.9748	157.5309
458.1391	160.2911
458.3033	155.018
458.4676	149.3736
458.6319	153.5304
458.7961	150.4866
458.9604	154.5311
459.1246	153.6041
459.2888	153.013
459.4531	154.7033
459.6173	150.2
459.7815	156.2444
459.9457	153.9877
460.11	158.8885
460.2741	154.8031
460.4384	156.372
460.6025	157.9234
460.7667	157.69
460.9309	163.713
461.0951	160.1295
461.2592	163.1745
461.4234	159.2378
461.5876	158.6808
461.7517	154.3611
461.9159	157.0435
462.08	161.6056
462.2441	162.9869
462.4082	158.6275
462.5724	167.7208
462.7365	162.9077
462.9006	156.0455
463.0647	159.9725
463.2288	165.8937
463.3929	162.0656
463.557	158.8971
463.721	159.1737
463.8851	160.0499
464.0492	160.0573
464.2132	156.4065
464.3773	160.5188
464.5414	160.1174
464.7054	156.8158
464.8694	155.3545
465.0334	158.3035
465.1975	159.3029
465.3615	158.6095
465.5255	160.1219
465.6895	158.7477
465.8535	161.1084
466.0175	172.3228
466.1815	175.9821
466.3455	169.3321
466.5095	164.9434
466.6734	155.7082
466.8374	153.4039
467.0014	157.1913
467.1653	158.1346
467.3293	163.1035
467.4932	163.5194
467.6571	169.6919
467.8211	164.5643
467.985	166.2185
468.1489	170.2411
468.3128	167.0475
468.4767	167.4392
468.6406	171.7801
468.8045	170.9799
468.9684	176.0134
469.1323	162.7282
469.2962	171.6373
469.46	174.3623
469.6239	175.1374
469.7878	173.8232
469.9516	170.1566
470.1154	165.179
470.2793	163.3207
470.4431	160.2254
470.607	165.249
470.7708	163.0636
470.9346	161.8038
471.0984	170.6764
471.2622	170.8866
471.426	165.7563
471.5898	172.1892
471.7536	174.951
471.9174	183.0469
472.0811	188.8017
472.2449	180.6222
472.4087	179.48
472.5724	179.9721
472.7362	170.8494
472.8999	168.5208
473.0637	161.2813
473.2274	173.1018
473.3911	174.319
473.5548	166.663
473.7185	172.6477
473.8822	170.731
474.0459	174.1516
474.2096	177.4232
474.3733	181.0721
474.537	179.8095
474.7007	175.1678
474.8643	179.3318
475.028	169.6253
475.1917	171.7506
475.3553	171.5242
475.519	170.9268
475.6826	173.3474
475.8463	171.0462
476.0099	170.7542
476.1735	167.5362
476.3371	165.4964
476.5007	167.2335
476.6643	170.0983
476.8279	175.164
476.9915	172.8973
477.1551	173.4135
477.3187	175.5009
477.4823	180.8208
477.6458	178.9887
477.8094	181.0983
477.9729	183.1916
478.1365	177.9819
478.3	182.9641
478.4636	176.1797
478.6271	168.0828
478.7906	169.7739
478.9541	168.2011
479.1176	173.705
479.2812	179.8834
479.4447	181.9897
479.6082	190.0322
479.7716	189.3062
479.9351	179.1191
480.0986	168.6141
480.2621	177.736
480.4255	183.8315
480.589	184.417
480.7524	174.4876
480.9159	175.3719
481.0793	172.3092
481.2428	177.8463
481.4062	179.3386
481.5696	179.3184
481.733	184.771
481.8964	186.1982
482.0598	181.8378
482.2232	181.0734
482.3866	180.3523
482.55	180.2063
482.7134	188.4061
482.8768	182.5516
483.0401	183.1255
483.2035	180.4823
483.3668	178.0528
483.5302	181.1496
483.6935	181.6889
483.8568	182.783
484.0202	181.241
484.1835	181.8583
484.3468	180.9667
484.5101	178.5635
484.6734	179.9302
484.8367	179.5565
485	180.8993
485.1633	181.2507
485.3266	181.6226
485.4899	174.0105
485.6531	169.1213
485.8164	161.7104
485.9796	149.8815
486.1429	144.475
486.3061	134.0865
486.4694	142.8782
486.6326	158.3966
486.7958	170.4947
486.959	171.7088
487.1223	168.2486
487.2855	164.6031
487.4486	172.1637
487.6118	177.8569
487.775	175.877
487.9382	183.3702
488.1014	184.8446
488.2646	183.0534
488.4277	184.5114
488.5909	183.7111
488.754	182.9185
488.9171	179.7463
489.0803	170.8305
489.2434	171.8035
489.4066	177.1203
489.5697	191.0694
489.7328	196.1793
489.8959	192.8813
490.059	193.1194
490.2221	189.0785
490.3852	192.8886
490.5482	185.6488
490.7113	186.4918
490.8744	183.1133
491.0374	183.8251
491.2005	180.0597
491.3636	179.6266
491.5266	183.5452
491.6896	188.6147
491.8527	170.6101
492.0157	165.7742
492.1787	164.4534
492.3417	165.9473
492.5047	176.0486
492.6677	186.6172
492.8307	197.5457
492.9937	192.566
493.1567	185.6778
493.3196	182.9751
493.4826	189.0569
493.6456	186.8135
493.8085	181.5725
493.9715	181.1542
494.1344	181.2603
494.2974	188.7363
494.4603	194.9083
494.6232	189.586
494.7861	188.5114
494.949	191.8611
495.1119	202.9442
495.2748	202.8937
495.4377	194.9317
495.6006	190.4496
495.7635	182.5389
495.9264	183.6408
496.0892	184.4322
496.2521	195.9699
496.4149	199.8921
496.5778	190.8195
496.7407	188.2862
496.9035	192.2392
497.0663	191.7462
497.2291	194.9959
497.3919	197.1944
497.5547	197.7612
497.7176	191.4134
497.8804	191.9411
498.0432	179.95
498.2059	177.0082
498.3687	186.3011
498.5315	184.6478
498.6942	189.9328
498.857	190.7413
499.0198	192.0351
499.1825	187.9772
499.3452	197.3662
499.508	196.8793
499.6707	194.6884
499.8334	194.923
499.9962	197.7157
500.1589	190.0434
500.3216	184.699
500.4843	184.3672
500.6469	181.6378
500.8096	188.3936
500.9723	189.1658
501.135	188.5771
501.2976	183.3657
501.4603	185.1329
501.623	186.7722
501.7856	180.1125
501.9482	182.5567
502.1109	195.7837
502.2735	195.806
502.4361	199.5348
502.5987	194.6144
502.7614	194.2725
502.924	194.1467
503.0865	199.6623
503.2491	197.1315
503.4117	198.6974
503.5743	194.6283
503.7368	187.9411
503.8994	189.5669
504.062	183.6911
504.2245	182.0892
504.3871	189.8973
504.5496	204.4077
504.7121	203.9743
504.8746	200.8063
505.0372	204.4953
505.1997	198.7981
505.3622	203.4883
505.5247	206.8373
505.6872	210.344
505.8497	204.4177
506.0121	206.0386
506.1746	208.1593
506.3371	207.4817
506.4995	204.8119
506.662	196.7558
506.8244	192.7192
506.9869	206.0427
507.1493	206.6223
507.3117	207.8586
507.4742	201.9046
507.6366	192.2965
507.799	192.1165
507.9614	196.9583
508.1238	188.6944
508.2862	194.2564
508.4485	195.6628
508.6109	197.1494
508.7733	198.1559
508.9357	204.654
509.098	210.3112
509.2604	215.0704
509.4227	216.1987
509.5851	211.9218
509.7474	201.3807
509.9097	194.9046
510.072	200.3522
510.2343	198.6607
510.3966	205.5571
510.5589	203.6133
510.7212	202.6651
510.8835	205.0555
511.0458	201.2365
511.2081	195.9619
511.3703	203.6039
511.5326	211.0598
511.6949	213.2774
511.8571	217.0354
512.0193	206.1338
512.1816	201.7103
512.3438	201.9971
512.506	201.9159
512.6682	192.6626
512.8304	199.1254
512.9926	204.0731
513.1548	197.6151
513.317	195.4755
513.4792	202.7379
513.6414	203.1927
513.8035	191.788
513.9657	186.9808
514.1279	188.1843
514.29	195.4306
514.4521	192.6845
514.6143	190.0405
514.7764	187.3381
514.9385	196.8512
515.1006	199.7795
515.2628	194.8261
515.4249	195.8477
515.587	198.8988
515.7491	197.7012
515.9111	198.8564
516.0732	200.2017
516.2353	199.3757
516.3973	193.688
