SPECTRUM DATA FILE
SpectrumCount:	1
PixelCount:	3648
UserName:	ToughBook User
SampleName:	
LightSource:	
Comments:	
DeviceName:	Qwave
DeviceManufacturer:	Broadcom
DeviceSerialNo:	11311

Name:	last spectrum
Date:	2024-05-02T14:33:01.1046536+02:00
ExposureTime:	0.02
TemporalAvg:	1
IntensityUnit:	normalizedCounts
CCDLoadLevel:	0.7210623
Temperature:	30.51813
DiagramColor:	200
ProcessingSteps:	335

Wavelength [nm]	Intensity1
334.421	144.2778
334.5891	151.3699
334.7573	149.549
334.9254	146.7025
335.0935	151.7555
335.2616	160.8012
335.4297	164.1428
335.5978	152.7963
335.7659	139.7925
335.934	124.6857
336.1021	115.0884
336.2701	127.6487
336.4382	137.6987
336.6063	144.3787
336.7744	127.3281
336.9424	122.6274
337.1105	120.5926
337.2785	131.3118
337.4466	146.7554
337.6146	152.0607
337.7827	151.4224
337.9507	147.41
338.1187	144.7719
338.2867	154.5304
338.4548	160.3194
338.6228	157.6872
338.7908	157.8928
338.9588	151.9025
339.1268	146.2686
339.2948	155.2947
339.4628	164.5546
339.6308	175.361
339.7988	181.1185
339.9667	181.7303
340.1347	183.5773
340.3027	180.3085
340.4707	173.4969
340.6386	165.3033
340.8066	158.0327
340.9745	160.4756
341.1425	165.6294
341.3104	164.4663
341.4784	164.8571
341.6463	172.8595
341.8142	182.6381
341.9821	186.6054
342.1501	186.7298
342.318	184.323
342.4859	174.3793
342.6538	183.2464
342.8217	192.7978
342.9896	193.1788
343.1575	202.3703
343.3254	196.7956
343.4933	182.1558
343.6612	176.4889
343.829	160.4655
343.9969	149.2335
344.1648	134.2419
344.3326	143.9374
344.5005	152.2849
344.6683	169.6879
344.8362	180.2282
345.004	192.8903
345.1719	189.8634
345.3397	195.4838
345.5075	191.6817
345.6754	185.525
345.8432	177.6045
346.011	178.428
346.1788	179.2854
346.3466	187.6589
346.5144	193.983
346.6822	199.8261
346.85	203.6963
347.0178	202.2833
347.1856	200.0302
347.3534	183.5746
347.5211	177.3584
347.6889	184.26
347.8567	191.1973
348.0244	200.0675
348.1922	197.0795
348.3599	204.7782
348.5277	199.7304
348.6954	201.6423
348.8632	192.5257
349.0309	183.9142
349.1986	181.5522
349.3663	186.4406
349.5341	193.8587
349.7018	202.868
349.8695	216.6955
350.0372	239.8562
350.2049	253.3756
350.3726	255.0741
350.5403	243.0509
350.7079	234.3177
350.8756	229.687
351.0433	223.4742
351.211	221.7625
351.3786	224.614
351.5463	235.3413
351.714	252.1506
351.8816	250.9209
352.0493	238.9588
352.2169	214.0695
352.3846	196.9658
352.5522	207.4291
352.7198	224.1152
352.8875	245.7699
353.0551	249.6059
353.2227	259.5806
353.3903	263.6312
353.5579	269.61
353.7255	275.8461
353.8931	280.9681
354.0607	282.4522
354.2283	285.8151
354.3958	286.1606
354.5634	282.2162
354.731	281.2238
354.8986	277.8866
355.0661	276.8204
355.2337	265.6221
355.4012	264.7624
355.5688	256.6815
355.7363	262.3126
355.9039	264.5923
356.0714	260.9914
356.239	259.538
356.4065	246.5077
356.574	216.6224
356.7415	210.103
356.909	197.6063
357.0765	205.8921
357.244	221.7121
357.4115	236.7131
357.579	241.6339
357.7465	227.1467
357.914	208.1662
358.0815	186.1703
358.249	168.118
358.4164	170.1422
358.5839	179.755
358.7513	200.6707
358.9188	241.5415
359.0862	272.3154
359.2537	285.7957
359.4211	302.9192
359.5886	310.9235
359.756	323.3464
359.9234	328.523
360.0909	322.146
360.2583	298.5352
360.4257	273.4745
360.5931	267.3086
360.7605	259.1443
360.9279	248.6248
361.0953	258.2298
361.2627	273.0968
361.4301	284.2827
361.5974	270.2156
361.7648	261.2217
361.9322	258.0192
362.0995	274.2334
362.2669	306.0211
362.4343	332.5716
362.6016	355.4745
362.769	352.3369
362.9363	327.0459
363.1036	295.547
363.271	279.2818
363.4383	283.9689
363.6056	313.6976
363.7729	334.964
363.9402	347.9634
364.1075	353.7875
364.2748	330.9644
364.4421	319.2494
364.6094	302.8768
364.7767	300.3696
364.944	311.8188
365.1113	335.8161
365.2786	364.8371
365.4458	393.1343
365.6131	406.9427
365.7803	413.4715
365.9476	415.3254
366.1148	417.8259
366.2821	415.5214
366.4493	406.3102
366.6166	390.0365
366.7838	389.7854
366.951	387.3185
367.1182	407.7589
367.2855	418.9676
367.4527	416.1206
367.6199	389.6284
367.7871	374.442
367.9543	360.2491
368.1215	364.6328
368.2886	374.4924
368.4558	380.0433
368.623	370.252
368.7902	381.3043
368.9573	399.226
369.1245	423.1859
369.2917	447.7658
369.4588	443.7769
369.6259	443.2382
369.7931	462.4735
369.9602	475.6594
370.1274	462.3951
370.2945	426.7803
370.4616	392.8245
370.6287	378.2304
370.7958	381.1716
370.963	401.4861
371.1301	460.2
371.2971	503.1699
371.4643	513.4996
371.6313	486.2979
371.7984	433.5544
371.9655	370.9366
372.1326	340.2964
372.2997	362.4571
372.4667	423.8443
372.6338	453.0237
372.8008	449.0446
372.9679	435.0067
373.1349	395.1708
373.3019	349.3434
373.469	308.5337
373.636	303.2368
373.803	349.4692
373.9701	401.7941
374.1371	437.9397
374.3041	404.4528
374.4711	364.3251
374.6381	330.6686
374.8051	319.9341
374.9721	347.1976
375.1391	405.5653
375.3061	477.2105
375.473	507.9381
375.64	493.5603
375.8069	454.4488
375.9739	428.5565
376.1409	434.0196
376.3078	442.8516
376.4748	446.2037
376.6417	445.3946
376.8087	463.5488
376.9756	483.4264
377.1425	507.212
377.3094	538.2996
377.4763	572.871
377.6432	587.5762
377.8102	605.9149
377.9771	619.4772
378.144	630.8822
378.3109	622.1014
378.4777	606.4895
378.6446	555.4495
378.8115	519.6233
378.9784	494.5844
379.1452	489.5544
379.3121	494.2994
379.4789	470.8883
379.6458	450.4135
379.8127	456.48
379.9795	486.8428
380.1463	541.5046
380.3131	592.2647
380.48	603.8812
380.6468	600.968
380.8136	603.8162
380.9804	609.0536
381.1472	590.425
381.314	536.4026
381.4808	487.0833
381.6476	466.752
381.8144	455.8232
381.9812	439.6127
382.148	435.6984
382.3147	413.5168
382.4815	395.9249
382.6483	363.4109
382.815	354.9462
382.9818	359.9433
383.1485	357.4632
383.3153	355.7012
383.482	353.8345
383.6487	357.3382
383.8155	360.4905
383.9822	385.3431
384.1489	442.2316
384.3156	513.0549
384.4823	570.8779
384.649	577.6235
384.8157	579.7462
384.9824	565.074
385.1491	561.5889
385.3158	563.5898
385.4825	536.5026
385.6491	500.1673
385.8158	467.5179
385.9825	466.7109
386.1491	512.3577
386.3157	572.2391
386.4824	598.6431
386.649	594.0438
386.8157	553.1525
386.9823	509.8536
387.1489	496.9663
387.3156	524.4621
387.4821	577.8481
387.6488	587.3468
387.8154	569.2995
387.982	528.3433
388.1486	522.8672
388.3152	524.8236
388.4818	528.0779
388.6483	524.3387
388.8149	517.7529
388.9815	570.2529
389.148	634.2194
389.3146	681.0361
389.4811	701.4993
389.6477	707.0284
389.8142	702.2291
389.9808	700.9484
390.1473	683.8963
390.3138	654.9578
390.4804	657.7924
390.6469	669.3513
390.8134	717.4416
390.9799	783.4659
391.1464	818.2386
391.3129	820.2006
391.4794	810.1725
391.6459	776.8369
391.8124	749.9741
391.9789	706.404
392.1453	666.8885
392.3118	647.1568
392.4782	635.6323
392.6447	571.1936
392.8112	471.4228
392.9776	377.3877
393.144	294.2986
393.3105	253.4363
393.4769	264.1971
393.6433	328.2133
393.8098	432.0495
393.9762	524.9774
394.1426	579.0361
394.309	612.9955
394.4754	673.3235
394.6418	741.8526
394.8082	792.6326
394.9746	834.569
395.141	851.5361
395.3073	863.3511
395.4737	855.6644
395.64	846.0547
395.8064	839.564
395.9728	785.2665
396.1391	686.6087
396.3055	585.4762
396.4718	479.1623
396.6381	384.998
396.8045	322.2649
396.9708	332.9809
397.1371	415.7791
397.3034	548.9769
397.4697	666.1781
397.636	769.7484
397.8023	872.6032
397.9686	953.0667
398.1349	1000.232
398.3012	995.8918
398.4675	995.5869
398.6337	1024.243
398.8	1065.822
398.9662	1082.37
399.1325	1106.987
399.2988	1113.628
399.465	1109.176
399.6313	1096.205
399.7975	1090.58
399.9637	1128.794
400.1299	1180.415
400.2961	1168.887
400.4624	1105.112
400.6286	1092.391
400.7948	1112.749
400.961	1172.26
401.1272	1216.015
401.2934	1224.157
401.4595	1230.312
401.6257	1232.61
401.7919	1234.199
401.9581	1229.769
402.1242	1251.617
402.2904	1255.761
402.4565	1260.897
402.6227	1258.921
402.7888	1257.458
402.955	1218.918
403.1211	1150.567
403.2872	1119.987
403.4533	1167.593
403.6194	1247.669
403.7856	1307.926
403.9517	1326.373
404.1177	1313.001
404.2838	1235.141
404.4499	1139.225
404.616	1099.372
404.7821	1171.266
404.9482	1280.518
405.1142	1338.782
405.2803	1328.446
405.4464	1275.719
405.6124	1239.936
405.7784	1225.916
405.9445	1239.519
406.1105	1251.085
406.2766	1200.787
406.4426	1169.652
406.6086	1208.763
406.7746	1292.26
406.9406	1321.248
407.1066	1299.671
407.2726	1295.022
407.4386	1295.296
407.6046	1263.107
407.7706	1257.357
407.9366	1291.275
408.1025	1384.489
408.2685	1418.248
408.4344	1411.136
408.6004	1431.89
408.7664	1494.725
408.9323	1524.294
409.0983	1525.396
409.2642	1481.172
409.4301	1435.954
409.596	1382.859
409.762	1328.099
409.9279	1244.087
410.0938	1159.947
410.2597	1138.939
410.4256	1231.616
410.5915	1351.915
410.7574	1428.205
410.9232	1452.838
411.0891	1475.545
411.255	1511.854
411.4209	1551.64
411.5867	1580.077
411.7526	1584.613
411.9184	1535.748
412.0843	1530.541
412.2501	1548.716
412.4159	1555.283
412.5818	1534.62
412.7476	1529.555
412.9134	1494.723
413.0792	1453.418
413.245	1424.037
413.4108	1431.016
413.5766	1505.892
413.7424	1596.583
413.9082	1638.444
414.074	1606.52
414.2397	1516.968
414.4055	1472.632
414.5713	1497.144
414.737	1562.104
414.9028	1578.254
415.0685	1560.667
415.2343	1543.976
415.4	1523.868
415.5658	1507.787
415.7315	1521.041
415.8972	1568.56
416.0629	1638.491
416.2286	1697.784
416.3943	1708.81
416.56	1672.447
416.7257	1635.888
416.8914	1609.638
417.0571	1577.396
417.2228	1527.765
417.3884	1492.589
417.5541	1510.55
417.7198	1544.631
417.8854	1588.762
418.0511	1589.978
418.2167	1579.829
418.3824	1587.848
418.548	1579.097
418.7136	1567.984
418.8792	1586.611
419.0449	1646.476
419.2105	1710.865
419.3761	1723.328
419.5417	1681.401
419.7073	1595.925
419.8729	1518.495
420.0385	1522.481
420.204	1574.601
420.3696	1646.359
420.5352	1720.909
420.7007	1793.59
420.8663	1827.41
421.0319	1842.846
421.1974	1843.368
421.3629	1827.758
421.5285	1767.991
421.694	1743.543
421.8595	1794.279
422.0251	1851.978
422.1906	1822.392
422.3561	1702.088
422.5216	1509.058
422.6871	1423.741
422.8526	1539.935
423.0181	1737.549
423.1835	1867.831
423.349	1806.093
423.5145	1723.859
423.68	1693.625
423.8454	1698.18
424.0109	1753.04
424.1763	1811.404
424.3418	1852.831
424.5072	1848.765
424.6726	1797.099
424.838	1716.477
425.0035	1656.146
425.1689	1703.263
425.3343	1750.902
425.4997	1779.714
425.6651	1786.133
425.8305	1740.108
425.9959	1675.918
426.1613	1695.594
426.3267	1791.939
426.492	1888.389
426.6574	1892.796
426.8228	1817.78
426.9881	1669.487
427.1534	1543.016
427.3188	1509.786
427.4841	1594.34
427.6495	1737.561
427.8148	1827.159
427.9801	1821.564
428.1454	1793.073
428.3107	1770.064
428.476	1759.131
428.6414	1720.114
428.8066	1646.271
428.9719	1612.893
429.1372	1629.399
429.3025	1692.321
429.4678	1702.926
429.633	1607.508
429.7983	1464.401
429.9636	1318.651
430.1288	1264.011
430.294	1271.709
430.4593	1303.775
430.6245	1283.903
430.7897	1233.25
430.955	1212.631
431.1202	1287.976
431.2854	1486.592
431.4506	1742.807
431.6158	1997.566
431.781	2150.72
431.9462	2181.638
432.1114	2064.331
432.2766	1871.8
432.4417	1668.97
432.6069	1621.313
432.772	1811.159
432.9372	2015.083
433.1024	2119.603
433.2675	2135.164
433.4326	2109.992
433.5977	2011.18
433.7629	1802.474
433.928	1592.844
434.0931	1535.092
434.2582	1665.953
434.4233	1862.77
434.5884	2016.86
434.7535	2115.819
434.9186	2142.807
435.0837	2046.553
435.2488	1990.288
435.4138	1976.417
435.5789	2080.907
435.744	2158.403
435.909	2183.102
436.0741	2228.305
436.2391	2279.581
436.4042	2321.992
436.5692	2312.642
436.7342	2259.051
436.8992	2222.226
437.0643	2180.594
437.2293	2144.012
437.3943	2082.619
437.5593	2063.834
437.7243	2119.381
437.8893	2175.754
438.0542	2132.405
438.2192	1923.256
438.3842	1733.719
438.5491	1748.682
438.7141	1922.859
438.8791	2050.367
439.044	2077.139
439.209	2113.193
439.3739	2154.286
439.5388	2202.361
439.7037	2257.641
439.8687	2243.46
440.0336	2216.441
440.1985	2168.35
440.3634	2060.401
440.5283	2048.731
440.6932	2058.235
440.8581	2179.037
441.0229	2319.001
441.1878	2406.737
441.3527	2385.076
441.5175	2299.63
441.6824	2272.167
441.8472	2381.498
442.0121	2482.299
442.1769	2456.485
442.3418	2407.709
442.5066	2395.324
442.6714	2417.894
442.8362	2454.667
443.001	2444.619
443.1659	2427.052
443.3307	2357.394
443.4955	2330.078
443.6602	2379.89
443.825	2473.978
443.9898	2525.848
444.1546	2462.844
444.3193	2414.655
444.4841	2467.538
444.6488	2545.386
444.8136	2576.552
444.9783	2551.291
445.1431	2528.588
445.3078	2444.306
445.4725	2334.101
445.6372	2257.001
445.802	2246.604
445.9667	2279.173
446.1314	2315.038
446.2961	2401.058
446.4608	2490.623
446.6255	2543.054
446.7901	2506.393
446.9548	2499.72
447.1195	2530.319
447.2841	2623.207
447.4488	2712.221
447.6134	2751.867
447.7781	2748.652
447.9427	2658.746
448.1074	2550.643
448.272	2535.081
448.4366	2654.449
448.6012	2752.157
448.7658	2748.727
448.9305	2672.715
449.095	2651.74
449.2596	2662.891
449.4242	2683.233
449.5888	2693.603
449.7534	2727.333
449.9179	2794.705
450.0825	2820.448
450.2471	2862.542
450.4116	2931.295
450.5762	2997.906
450.7407	2989.435
450.9052	2975.103
451.0698	2954.978
451.2343	2929.279
451.3988	2876.875
451.5633	2859.092
451.7278	2852.352
451.8923	2859.961
452.0568	2895.001
452.2213	2887.538
452.3858	2810.941
452.5503	2728.226
452.7148	2621.921
452.8792	2525.344
453.0437	2560.35
453.2081	2613.169
453.3726	2645.954
453.537	2667.823
453.7015	2759.283
453.8659	2869.773
454.0303	2896.685
454.1947	2864.922
454.3592	2841.971
454.5236	2824.378
454.688	2795.819
454.8524	2711.925
455.0168	2710.349
455.1811	2750.043
455.3455	2750.607
455.5099	2753.352
455.6743	2825.872
455.8386	2899.866
456.003	2964.795
456.1673	2972.481
456.3317	2896.224
456.496	2824.776
456.6603	2849.538
456.8246	2909.877
456.989	2935.696
457.1533	2897.73
457.3176	2926.472
457.4819	2974.228
457.6462	3000.546
457.8105	2944.497
457.9748	2839.719
458.1391	2755.907
458.3033	2735.904
458.4676	2744.621
458.6319	2800.957
458.7961	2861.801
458.9604	2921.864
459.1246	2891.855
459.2888	2829.745
459.4531	2806.812
459.6173	2830.167
459.7815	2808.873
459.9457	2829.505
460.11	2832.079
460.2741	2872.735
460.4384	2868.504
460.6025	2907.006
460.7667	2945.452
460.9309	3001.979
461.0951	2994.688
461.2592	2952.816
461.4234	2944.874
461.5876	2958.183
461.7517	2954.655
461.9159	2950.537
462.08	2966.958
462.2441	3026.802
462.4082	3020.022
462.5724	3010.149
462.7365	3031.306
462.9006	3044.889
463.0647	3051.872
463.2288	3023.748
463.3929	3026.547
463.557	2975.025
463.721	2942.719
463.8851	2956.396
464.0492	2956.941
464.2132	2989.803
464.3773	2980.447
464.5414	2912.286
464.7054	2854.826
464.8694	2839.579
465.0334	2905.642
465.1975	3006.321
465.3615	3003.206
465.5255	2979.372
465.6895	2991.572
465.8535	3079.84
466.0175	3145.299
466.1815	3116.469
466.3455	3033.626
466.5095	2938.368
466.6734	2811.942
466.8374	2776.344
467.0014	2855.021
467.1653	2985.653
467.3293	3050.167
467.4932	3080.22
467.6571	3103.771
467.8211	3056.399
467.985	2998.04
468.1489	2986.142
468.3128	3037.526
468.4767	3110.541
468.6406	3140.628
468.8045	3112.615
468.9684	3082.259
469.1323	3091.217
469.2962	3103.667
469.46	3136.147
469.6239	3146.315
469.7878	3113.812
469.9516	3030.917
470.1154	2919.719
470.2793	2883.682
470.4431	2914.418
470.607	2961.429
470.7708	2979.715
470.9346	2978.868
471.0984	3028.816
471.2622	3070.314
471.426	3075.153
471.5898	3091.285
471.7536	3181.179
471.9174	3253.191
472.0811	3273.822
472.2449	3255.967
472.4087	3241.884
472.5724	3207.591
472.7362	3128.589
472.8999	3046.968
473.0637	2998.71
473.2274	3046.734
473.3911	3089.124
473.5548	3083.509
473.7185	3087.119
473.8822	3125.646
474.0459	3155.141
474.2096	3166.309
474.3733	3181.476
474.537	3219.498
474.7007	3222.977
474.8643	3224.167
475.028	3210.476
475.1917	3171.679
475.3553	3106.551
475.519	3053.995
475.6826	3071.326
475.8463	3123.587
476.0099	3133.113
476.1735	3099.182
476.3371	3020.748
476.5007	2947.204
476.6643	2959.446
476.8279	3030.603
476.9915	3112.129
477.1551	3134.135
477.3187	3145.53
477.4823	3185.447
477.6458	3227.219
477.8094	3252.006
477.9729	3255.254
478.1365	3227.347
478.3	3189.17
478.4636	3126.69
478.6271	3095.724
478.7906	3085.713
478.9541	3064.394
479.1176	3108.841
479.2812	3180.682
479.4447	3245.421
479.6082	3274.295
479.7716	3248.187
479.9351	3155.615
480.0986	3141.212
480.2621	3171.912
480.4255	3188.646
480.589	3170.841
480.7524	3134.736
480.9159	3124.589
481.0793	3131.624
481.2428	3147.971
481.4062	3195.988
481.5696	3246.292
481.733	3262.491
481.8964	3256.458
482.0598	3234.33
482.2232	3191.707
482.3866	3133.945
482.55	3147.424
482.7134	3192.886
482.8768	3203.098
483.0401	3186.523
483.2035	3154.334
483.3668	3173.092
483.5302	3203.819
483.6935	3196.402
483.8568	3142.977
484.0202	3091.554
484.1835	3071.482
484.3468	3099.21
484.5101	3146.3
484.6734	3186.873
484.8367	3186.204
485	3141.904
485.1633	3130.903
485.3266	3070.114
485.4899	2964.013
485.6531	2841.55
485.8164	2701.067
485.9796	2458.379
486.1429	2262.795
486.3061	2304.7
486.4694	2532.476
486.6326	2795.445
486.7958	2920.799
486.959	2909.718
487.1223	2824.485
487.2855	2833.131
487.4486	2910.164
487.6118	3008.092
487.775	3048.397
487.9382	3094.966
488.1014	3157.328
488.2646	3159.983
488.4277	3084.301
488.5909	3010.44
488.754	2930.324
488.9171	2898.83
489.0803	2863.259
489.2434	2913.886
489.4066	3089.149
489.5697	3268.045
489.7328	3312.231
489.8959	3293.592
490.059	3255.837
490.2221	3195.38
490.3852	3174.368
490.5482	3192.087
490.7113	3192.392
490.8744	3133.748
491.0374	3051.358
491.2005	3029.868
491.3636	3127.396
491.5266	3197.298
491.6896	3107.958
491.8527	2913.225
492.0157	2750.965
492.1787	2743.305
492.3417	2880.675
492.5047	2999.609
492.6677	3099.092
492.8307	3199.284
492.9937	3223.902
493.1567	3199.002
493.3196	3121.115
493.4826	3051.332
493.6456	3020.182
493.8085	2970.413
493.9715	2948.018
494.1344	3050.737
494.2974	3188.251
494.4603	3212.616
494.6232	3220.795
494.7861	3215.221
494.949	3253.822
495.1119	3263.7
495.2748	3215.787
495.4377	3169.834
495.6006	3035.244
495.7635	2928.031
495.9264	2975.219
496.0892	3128.256
496.2521	3265.103
496.4149	3256.644
496.5778	3194.998
496.7407	3136.822
496.9035	3120.818
497.0663	3152.662
497.2291	3196.349
497.3919	3259.977
497.5547	3267.704
497.7176	3231.402
497.8804	3154.986
498.0432	3058.035
498.2059	2955.247
498.3687	2884.247
498.5315	2893.535
498.6942	3057.671
498.857	3178.688
499.0198	3197.79
499.1825	3160.884
499.3452	3181.779
499.508	3196.302
499.6707	3194.586
499.8334	3177.8
499.9962	3114.184
500.1589	3048.833
500.3216	3014.689
500.4843	2983.736
500.6469	2962.615
500.8096	3028.394
500.9723	3083.868
501.135	3085.654
501.2976	2997.722
501.4603	2949.524
501.623	2949.34
501.7856	2969.181
501.9482	3002.672
502.1109	3049.053
502.2735	3095.079
502.4361	3131.006
502.5987	3125.574
502.7614	3134.709
502.924	3157.603
503.0865	3219.222
503.2491	3283.838
503.4117	3275.191
503.5743	3177.012
503.7368	3082.632
503.8994	2983.766
504.062	2910.875
504.2245	2917.434
504.3871	3083.773
504.5496	3244.371
504.7121	3275.742
504.8746	3196.74
505.0372	3133.368
505.1997	3135.265
505.3622	3207.636
505.5247	3270.183
505.6872	3334.782
505.8497	3349.925
506.0121	3350.106
506.1746	3362.191
506.3371	3349.424
506.4995	3264.686
506.662	3197.577
506.8244	3172.852
506.9869	3192.931
507.1493	3205.943
507.3117	3192.026
507.4742	3176.845
507.6366	3196.852
507.799	3129.239
507.9614	3042.447
508.1238	2976.837
508.2862	3016.219
508.4485	3121.464
508.6109	3191.688
508.7733	3241.626
508.9357	3251.564
509.098	3257.3
509.2604	3287.496
509.4227	3286.741
509.5851	3203.704
509.7474	3071.429
509.9097	3006.686
510.072	3042.784
510.2343	3148.715
510.3966	3196.778
510.5589	3155.606
510.7212	3084.703
510.8835	3030.628
511.0458	3052.544
511.2081	3116.899
511.3703	3171.689
511.5326	3219.729
511.6949	3208.974
511.8571	3220.718
512.0193	3189.522
512.1816	3125.471
512.3438	3035.049
512.506	2958.283
512.6682	2957.014
512.8304	2955.32
512.9926	2973.634
513.1548	2984.582
513.317	2996.748
513.4792	3019.382
513.6414	2981.043
513.8035	2915.14
513.9657	2851.198
514.1279	2842.164
514.29	2867.096
514.4521	2919.548
514.6143	2929.644
514.7764	2933.175
514.9385	2937.701
515.1006	2944.481
515.2628	2941.078
515.4249	2934.161
515.587	2973.078
515.7491	3029.94
515.9111	3024.522
516.0732	2995.55
516.2353	2939.445
