SPECTRUM DATA FILE
SpectrumCount:	1
PixelCount:	3648
UserName:	ToughBook User
SampleName:	
LightSource:	
Comments:	
DeviceName:	Qwave
DeviceManufacturer:	Broadcom
DeviceSerialNo:	11311

Name:	last spectrum
Date:	2024-05-02T14:35:26.0312825+02:00
ExposureTime:	0.02
TemporalAvg:	1
IntensityUnit:	normalizedCounts
CCDLoadLevel:	0.1515707
Temperature:	31.93027
DiagramColor:	200
ProcessingSteps:	335

Wavelength [nm]	Intensity1
334.421	38.59077
334.5891	39.38396
334.7573	37.35779
334.9254	45.65466
335.0935	40.68163
335.2616	36.55054
335.4297	32.0853
335.5978	39.15842
335.7659	35.48755
335.934	33.42128
336.1021	32.69448
336.2701	33.27496
336.4382	30.318
336.6063	30.47808
336.7744	27.08842
336.9424	30.72495
337.1105	33.85535
337.2785	35.18908
337.4466	37.98567
337.6146	37.44629
337.7827	39.02908
337.9507	39.51385
338.1187	35.68406
338.2867	34.80846
338.4548	37.23184
338.6228	38.37574
338.7908	35.59958
338.9588	34.441
339.1268	37.54657
339.2948	38.89918
339.4628	35.59005
339.6308	40.12978
339.7988	40.20146
339.9667	43.4207
340.1347	37.19679
340.3027	42.59078
340.4707	35.14172
340.6386	38.57022
340.8066	40.94685
340.9745	38.63112
341.1425	37.94825
341.3104	36.09047
341.4784	39.48545
341.6463	42.82394
341.8142	37.64085
341.9821	41.57502
342.1501	41.16695
342.318	42.52374
342.4859	39.88227
342.6538	40.10648
342.8217	42.41595
342.9896	45.06075
343.1575	40.6761
343.3254	45.19477
343.4933	41.19319
343.6612	40.51354
343.829	39.10066
343.9969	31.40265
344.1648	34.65908
344.3326	35.2522
344.5005	38.49771
344.6683	38.64355
344.8362	39.69965
345.004	42.46955
345.1719	42.96601
345.3397	43.91661
345.5075	41.12685
345.6754	42.45919
345.8432	41.7966
346.011	43.17337
346.1788	38.06087
346.3466	41.89397
346.5144	45.43421
346.6822	50.6011
346.85	44.9091
347.0178	43.96191
347.1856	45.46428
347.3534	40.05906
347.5211	42.6467
347.6889	37.25008
347.8567	38.25846
348.0244	40.22061
348.1922	43.56129
348.3599	43.78195
348.5277	44.9072
348.6954	42.82788
348.8632	44.58895
349.0309	43.734
349.1986	43.06196
349.3663	42.10599
349.5341	43.87247
349.7018	43.46869
349.8695	44.55103
350.0372	48.58615
350.2049	51.92295
350.3726	51.57125
350.5403	48.31827
350.7079	54.72003
350.8756	51.07682
351.0433	51.5194
351.211	47.25645
351.3786	44.77478
351.5463	47.00868
351.714	51.23185
351.8816	50.53915
352.0493	50.20726
352.2169	49.88997
352.3846	42.77734
352.5522	46.71291
352.7198	50.35778
352.8875	51.97553
353.0551	56.37082
353.2227	51.49723
353.3903	53.36691
353.5579	57.55439
353.7255	58.3227
353.8931	59.65027
354.0607	53.21671
354.2283	55.56408
354.3958	55.90899
354.5634	55.48001
354.731	57.34398
354.8986	56.22984
355.0661	56.64216
355.2337	53.4388
355.4012	49.79893
355.5688	55.58643
355.7363	54.29952
355.9039	56.34581
356.0714	59.96289
356.239	55.69735
356.4065	51.7587
356.574	47.42197
356.7415	46.02909
356.909	41.54385
357.0765	46.25791
357.244	53.02909
357.4115	48.89914
357.579	50.06378
357.7465	49.80027
357.914	49.51008
358.0815	43.15504
358.249	41.88739
358.4164	41.64133
358.5839	42.12024
358.7513	43.88523
358.9188	50.12626
359.0862	55.35847
359.2537	54.39476
359.4211	57.03205
359.5886	61.58189
359.756	63.55698
359.9234	61.13086
360.0909	60.26365
360.2583	58.34693
360.4257	57.76303
360.5931	57.59885
360.7605	49.6436
360.9279	49.68958
361.0953	53.84045
361.2627	58.71084
361.4301	55.83206
361.5974	57.07824
361.7648	56.56335
361.9322	52.24515
362.0995	58.74529
362.2669	62.18674
362.4343	64.9526
362.6016	70.49644
362.769	69.70001
362.9363	62.43068
363.1036	61.95846
363.271	55.62611
363.4383	56.3059
363.6056	67.48515
363.7729	70.8747
363.9402	72.02115
364.1075	64.72709
364.2748	69.82134
364.4421	65.21373
364.6094	65.3289
364.7767	66.68118
364.944	66.61483
365.1113	72.82939
365.2786	72.39922
365.4458	75.61967
365.6131	81.16168
365.7803	79.13847
365.9476	77.0879
366.1148	79.82816
366.2821	81.25487
366.4493	74.74866
366.6166	75.56419
366.7838	77.03436
366.951	75.15363
367.1182	77.24126
367.2855	78.0904
367.4527	79.17477
367.6199	76.98228
367.7871	71.24116
367.9543	73.86566
368.1215	73.71015
368.2886	72.10575
368.4558	72.08554
368.623	65.27187
368.7902	69.60561
368.9573	81.40895
369.1245	81.98051
369.2917	80.84343
369.4588	84.80688
369.6259	80.95264
369.7931	88.90567
369.9602	85.87274
370.1274	85.24042
370.2945	85.15568
370.4616	77.17606
370.6287	70.89522
370.7958	71.02595
370.963	79.72129
371.1301	86.00954
371.2971	91.66279
371.4643	90.70667
371.6313	90.71449
371.7984	82.49691
371.9655	79.01753
372.1326	69.97594
372.2997	77.98524
372.4667	84.15346
372.6338	90.25788
372.8008	90.07372
372.9679	77.80139
373.1349	81.19761
373.3019	72.18055
373.469	65.41895
373.636	70.46493
373.803	73.24273
373.9701	81.80421
374.1371	82.73734
374.3041	80.99953
374.4711	78.22398
374.6381	70.79264
374.8051	67.23357
374.9721	74.35709
375.1391	78.05089
375.3061	88.70298
375.473	96.98218
375.64	92.8504
375.8069	90.72055
375.9739	89.37168
376.1409	81.85342
376.3078	85.89552
376.4748	91.16895
376.6417	93.61075
376.8087	92.93781
376.9756	97.21629
377.1425	102.3288
377.3094	104.5258
377.4763	105.4803
377.6432	113.1347
377.8102	112.686
377.9771	115.5253
378.144	113.8789
378.3109	112.8889
378.4777	109.0408
378.6446	106.8291
378.8115	98.58006
378.9784	89.05318
379.1452	88.66415
379.3121	89.47054
379.4789	84.97908
379.6458	80.66938
379.8127	88.8582
379.9795	94.92171
380.1463	104.8669
380.3131	113.707
380.48	113.0199
380.6468	109.7256
380.8136	110.0895
380.9804	116.8075
381.1472	111.3822
381.314	101.8214
381.4808	95.65096
381.6476	88.70422
381.8144	86.8585
381.9812	89.26595
382.148	86.24049
382.3147	82.72746
382.4815	77.15189
382.6483	74.00295
382.815	79.51479
382.9818	81.84866
383.1485	71.8713
383.3153	73.9398
383.482	73.77857
383.6487	75.36898
383.8155	79.37162
383.9822	85.19118
384.1489	88.57504
384.3156	98.52993
384.4823	103.1753
384.649	113.3216
384.8157	111.5035
384.9824	107.5879
385.1491	108.1727
385.3158	105.5324
385.4825	100.2259
385.6491	96.64317
385.8158	92.82381
385.9825	103.061
386.1491	103.2325
386.3157	107.0021
386.4824	115.4251
386.649	111.7185
386.8157	106.3502
386.9823	98.73376
387.1489	95.30138
387.3156	103.2554
387.4821	110.1902
387.6488	113.4932
387.8154	112.6666
387.982	111.5029
388.1486	106.0587
388.3152	103.4735
388.4818	102.1754
388.6483	108.7485
388.8149	105.0038
388.9815	109.4571
389.148	120.4504
389.3146	128.0296
389.4811	133.2635
389.6477	133.4514
389.8142	127.7625
389.9808	127.0015
390.1473	126.4498
390.3138	121.899
390.4804	123.3012
390.6469	129.0032
390.8134	132.2781
390.9799	144.5992
391.1464	146.776
391.3129	142.2333
391.4794	144.6525
391.6459	139.1939
391.8124	136.3185
391.9789	136.3193
392.1453	124.4051
392.3118	119.6794
392.4782	120.1851
392.6447	114.797
392.8112	96.22871
392.9776	81.79461
393.144	71.28645
393.3105	61.3941
393.4769	64.71273
393.6433	73.95517
393.8098	85.21152
393.9762	104.9603
394.1426	114.3071
394.309	119.2933
394.4754	129.2688
394.6418	136.4726
394.8082	146.5321
394.9746	153.7159
395.141	154.9677
395.3073	157.667
395.4737	162.8422
395.64	160.6161
395.8064	149.5324
395.9728	143.8261
396.1391	133.4733
396.3055	115.8778
396.4718	99.62311
396.6381	91.23193
396.8045	76.56579
396.9708	74.39948
397.1371	83.05467
397.3034	110.2318
397.4697	130.4188
397.636	148.4993
397.8023	163.9739
397.9686	177.2022
398.1349	183.1205
398.3012	182.6312
398.4675	183.0148
398.6337	189.8918
398.8	191.3789
398.9662	190.6038
399.1325	198.9793
399.2988	202.1275
399.465	196.8816
399.6313	198.7058
399.7975	194.5127
399.9637	205.217
400.1299	207.502
400.2961	209.4496
400.4624	192.827
400.6286	194.5305
400.7948	204.247
400.961	219.205
401.1272	218.7239
401.2934	223.3691
401.4595	221.7989
401.6257	220.3649
401.7919	229.9521
401.9581	226.6181
402.1242	219.9101
402.2904	225.1358
402.4565	226.0725
402.6227	221.5339
402.7888	226.0533
402.955	216.8404
403.1211	205.638
403.2872	201.8465
403.4533	208.9548
403.6194	226.7625
403.7856	240.0197
403.9517	237.9065
404.1177	229.1062
404.2838	222.7742
404.4499	204.6617
404.616	202.9424
404.7821	210.5996
404.9482	230.8391
405.1142	237.3565
405.2803	229.1375
405.4464	230.4727
405.6124	224.5939
405.7784	222.6324
405.9445	227.0619
406.1105	226.3069
406.2766	218.0405
406.4426	212.6114
406.6086	220.8571
406.7746	239.4777
406.9406	231.5831
407.1066	231.6538
407.2726	238.6879
407.4386	233.1987
407.6046	233.7793
407.7706	231.4815
407.9366	230.5997
408.1025	251.0442
408.2685	257.2462
408.4344	255.9684
408.6004	261.0451
408.7664	271.3314
408.9323	269.6069
409.0983	271.8522
409.2642	269.7166
409.4301	270.6174
409.596	255.2622
409.762	238.0328
409.9279	222.0452
410.0938	214.6056
410.2597	213.2337
410.4256	230.008
410.5915	251.6507
410.7574	265.1429
410.9232	270.3509
411.0891	263.4429
411.255	277.5038
411.4209	283.3446
411.5867	282.189
411.7526	279.9157
411.9184	272.5807
412.0843	274.2779
412.2501	275.3643
412.4159	280.8638
412.5818	272.041
412.7476	269.4065
412.9134	270.5208
413.0792	270.2257
413.245	260.8252
413.4108	259.0547
413.5766	278.6688
413.7424	300.4877
413.9082	298.7425
414.074	290.6013
414.2397	270.3835
414.4055	259.5384
414.5713	265.9688
414.737	275.1171
414.9028	276.0072
415.0685	275.4164
415.2343	267.4828
415.4	269.8652
415.5658	267.5667
415.7315	273.4926
415.8972	291.9188
416.0629	304.1061
416.2286	306.8584
416.3943	306.3141
416.56	296.7253
416.7257	293.0758
416.8914	299.8023
417.0571	290.6065
417.2228	266.151
417.3884	261.7977
417.5541	272.0674
417.7198	281.7726
417.8854	282.8488
418.0511	294.0468
418.2167	293.6089
418.3824	286.2802
418.548	289.6359
418.7136	288.588
418.8792	282.9066
419.0449	298.5183
419.2105	315.8161
419.3761	311.7859
419.5417	299.8521
419.7073	295.3927
419.8729	284.7941
420.0385	279.9255
420.204	288.5393
420.3696	305.47
420.5352	318.4666
420.7007	329.9435
420.8663	332.1284
421.0319	333.9856
421.1974	330.9785
421.3629	328.5414
421.5285	327.0408
421.694	321.2822
421.8595	322.893
422.0251	330.1332
422.1906	330.5283
422.3561	314.994
422.5216	278.6712
422.6871	263.8013
422.8526	284.3492
423.0181	315.716
423.1835	332.8044
423.349	334.0281
423.5145	317.9409
423.68	314.5695
423.8454	312.6911
424.0109	318.7431
424.1763	331.3931
424.3418	340.8635
424.5072	338.1366
424.6726	334.95
424.838	312.683
425.0035	309.3324
425.1689	323.929
425.3343	328.6185
425.4997	336.4897
425.6651	345.4197
425.8305	327.6325
425.9959	318.6615
426.1613	324.4782
426.3267	333.3339
426.492	349.3545
426.6574	353.3756
426.8228	338.088
426.9881	310.8566
427.1534	283.0864
427.3188	275.2646
427.4841	292.4878
427.6495	325.073
427.8148	339.7324
427.9801	336.6284
428.1454	332.3622
428.3107	328.3134
428.476	330.8352
428.6414	317.5195
428.8066	308.8496
428.9719	307.2594
429.1372	307.7745
429.3025	314.3883
429.4678	318.3125
429.633	304.9507
429.7983	278.6568
429.9636	252.2806
430.1288	240.6804
430.294	245.8736
430.4593	252.1832
430.6245	244.4582
430.7897	233.2023
430.955	233.7616
431.1202	250.6028
431.2854	278.6592
431.4506	322.5128
431.6158	361.5989
431.781	387.8389
431.9462	403.0389
432.1114	376.7994
432.2766	339.4582
432.4417	306.348
432.6069	301.7482
432.772	341.9518
432.9372	377.8293
433.1024	381.6781
433.2675	397.3124
433.4326	397.0831
433.5977	374.3001
433.7629	339.7094
433.928	302.4979
434.0931	291.7585
434.2582	318.3173
434.4233	351.9807
434.5884	380.8697
434.7535	389.1076
434.9186	395.4397
435.0837	388.4707
435.2488	377.8942
435.4138	372.4722
435.5789	388.5969
435.744	401.2685
435.909	407.8958
436.0741	417.8142
436.2391	422.4023
436.4042	432.2578
436.5692	425.2653
436.7342	427.7413
436.8992	422.3654
437.0643	410.8647
437.2293	400.5462
437.3943	402.246
437.5593	401.1869
437.7243	403.007
437.8893	409.3194
438.0542	408.5359
438.2192	363.68
438.3842	331.1961
438.5491	335.2788
438.7141	370.6241
438.8791	393.3081
439.044	394.6069
439.209	393.3684
439.3739	405.7274
439.5388	411.4571
439.7037	425.2324
439.8687	428.2622
440.0336	423.4288
440.1985	407.458
440.3634	394.4487
440.5283	396.5547
440.6932	399.4925
440.8581	415.5556
441.0229	442.8544
441.1878	466.9902
441.3527	455.014
441.5175	428.1388
441.6824	423.8231
441.8472	446.9928
442.0121	476.7066
442.1769	473.9788
442.3418	456.3364
442.5066	455.3274
442.6714	459.2408
442.8362	463.9556
443.001	458.986
443.1659	449.0748
443.3307	440.8253
443.4955	432.4146
443.6602	450.6213
443.825	471.7934
443.9898	474.5024
444.1546	460.3269
444.3193	457.7782
444.4841	464.585
444.6488	476.6177
444.8136	493.5626
444.9783	492.2233
445.1431	488.716
445.3078	465.2031
445.4725	442.6053
445.6372	430.0927
445.802	433.9625
445.9667	436.2965
446.1314	441.3044
446.2961	457.6451
446.4608	470.1131
446.6255	469.6543
446.7901	464.0741
446.9548	471.7706
447.1195	490.1893
447.2841	506.9132
447.4488	517.0848
447.6134	517.7233
447.7781	518.8546
447.9427	499.5055
448.1074	476.231
448.272	481.4168
448.4366	506.2391
448.6012	523.6484
448.7658	520.5252
448.9305	507.1425
449.095	498.1342
449.2596	498.7775
449.4242	513.8743
449.5888	520.0151
449.7534	534.0318
449.9179	539.8099
450.0825	530.8462
450.2471	540.6326
450.4116	560.3705
450.5762	567.0067
450.7407	555.8647
450.9052	548.162
451.0698	565.4173
451.2343	561.1005
451.3988	546.5665
451.5633	532.1981
451.7278	537.7162
451.8923	541.6387
452.0568	552.0209
452.2213	548.9521
452.3858	532.0366
452.5503	521.2455
452.7148	501.7232
452.8792	484.2261
453.0437	486.7547
453.2081	498.8349
453.3726	504.7946
453.537	513.8387
453.7015	526.5985
453.8659	542.5186
454.0303	551.7506
454.1947	556.4405
454.3592	549.6794
454.5236	548.423
454.688	524.3351
454.8524	521.2457
455.0168	529.1848
455.1811	529.7476
455.3455	539.9855
455.5099	530.1597
455.6743	547.6051
455.8386	554.6976
456.003	564.7704
456.1673	560.4286
456.3317	551.7158
456.496	547.5805
456.6603	545.7183
456.8246	563.4899
456.989	563.4586
457.1533	559.4567
457.3176	555.374
457.4819	569.3962
457.6462	577.9711
457.8105	562.2232
457.9748	552.6437
458.1391	543.0764
458.3033	531.7171
458.4676	531.101
458.6319	548.6409
458.7961	561.6602
458.9604	567.236
459.1246	557.7169
459.2888	556.4838
459.4531	556.1682
459.6173	550.6114
459.7815	548.6544
459.9457	547.4717
460.11	551.7318
460.2741	547.7408
460.4384	558.0089
460.6025	562.541
460.7667	575.1315
460.9309	583.6671
461.0951	582.5605
461.2592	561.8091
461.4234	570.9766
461.5876	576.1761
461.7517	565.2751
461.9159	573.7054
462.08	573.7946
462.2441	574.7661
462.4082	586.6855
462.5724	575.6038
462.7365	579.4035
462.9006	582.5193
463.0647	579.8759
463.2288	582.8685
463.3929	581.0908
463.557	582.8351
463.721	581.751
463.8851	571.0433
464.0492	579.0596
464.2132	582.6279
464.3773	582.9198
464.5414	576.8624
464.7054	558.053
464.8694	550.8477
465.0334	564.6869
465.1975	580.1306
465.3615	578.7074
465.5255	574.6156
465.6895	577.567
465.8535	595.8842
466.0175	613.3456
466.1815	603.1115
466.3455	591.0586
466.5095	562.4998
466.6734	547.72
466.8374	548.804
467.0014	551.9743
467.1653	576.2775
467.3293	592.1801
467.4932	594.1444
467.6571	600.5739
467.8211	589.0641
467.985	587.0668
468.1489	585.8481
468.3128	592.7914
468.4767	604.0321
468.6406	601.0364
468.8045	608.303
468.9684	603.3922
469.1323	604.3115
469.2962	609.7894
469.46	616.6807
469.6239	609.374
469.7878	600.9948
469.9516	584.7241
470.1154	574.9774
470.2793	562.7149
470.4431	575.2709
470.607	577.312
470.7708	574.2123
470.9346	587.7833
471.0984	597.5321
471.2622	605.8135
471.426	592.2239
471.5898	601.6883
471.7536	617.7084
471.9174	633.7466
472.0811	628.5118
472.2449	635.8193
472.4087	635.6782
472.5724	632.6437
472.7362	607.5352
472.8999	582.681
473.0637	574.7651
473.2274	597.0136
473.3911	607.8719
473.5548	611.626
473.7185	608.555
473.8822	604.5543
474.0459	620.0909
474.2096	620.4174
474.3733	629.4376
474.537	627.5543
474.7007	627.4022
474.8643	631.1535
475.028	627.6367
475.1917	615.8112
475.3553	601.7652
475.519	597.9214
475.6826	594.7958
475.8463	618.6333
476.0099	618.772
476.1735	606.8574
476.3371	598.816
476.5007	586.9296
476.6643	590.3744
476.8279	607.3842
476.9915	612.0779
477.1551	613.6303
477.3187	623.2727
477.4823	633.074
477.6458	637.7596
477.8094	646.1675
477.9729	646.1105
478.1365	638.3377
478.3	621.1267
478.4636	611.2228
478.6271	608.6131
478.7906	600.7369
478.9541	611.0358
479.1176	617.7732
479.2812	623.2277
479.4447	637.5845
479.6082	646.1099
479.7716	639.0951
479.9351	611.5466
480.0986	616.5096
480.2621	621.2186
480.4255	630.5855
480.589	633.0657
480.7524	628.691
480.9159	619.3677
481.0793	623.9376
481.2428	618.8612
481.4062	627.4789
481.5696	637.1062
481.733	650.1643
481.8964	662.0416
482.0598	655.3135
482.2232	634.6959
482.3866	623.6215
482.55	625.968
482.7134	634.7161
482.8768	635.0208
483.0401	628.9659
483.2035	623.1896
483.3668	629.0754
483.5302	631.0952
483.6935	621.5017
483.8568	608.9579
484.0202	611.3158
484.1835	612.727
484.3468	612.0852
484.5101	621.2658
484.6734	618.2816
484.8367	633.4132
485	631.1351
485.1633	621.2263
485.3266	617.613
485.4899	592.0614
485.6531	570.077
485.8164	543.2741
485.9796	499.069
486.1429	466.89
486.3061	463.9591
486.4694	516.5815
486.6326	574.4617
486.7958	588.0679
486.959	582.8471
487.1223	580.2232
487.2855	571.1055
487.4486	584.7759
487.6118	600.0291
487.775	613.3339
487.9382	627.2069
488.1014	623.2563
488.2646	619.2891
488.4277	618.4946
488.5909	612.2859
488.754	591.4025
488.9171	581.402
489.0803	574.8148
489.2434	599.5244
489.4066	629.2329
489.5697	652.3633
489.7328	666.1833
489.8959	656.5661
490.059	648.5214
490.2221	646.5641
490.3852	643.048
490.5482	647.1467
490.7113	645.3199
490.8744	629.2721
491.0374	614.7766
491.2005	616.413
491.3636	627.3892
491.5266	652.0461
491.6896	628.4482
491.8527	589.0302
492.0157	574.1095
492.1787	566.8256
492.3417	586.473
492.5047	598.9132
492.6677	633.7722
492.8307	650.2636
492.9937	652.4451
493.1567	644.4762
493.3196	635.1099
493.4826	630.0865
493.6456	617.6253
493.8085	611.0551
493.9715	612.9028
494.1344	630.0967
494.2974	652.0394
494.4603	664.9955
494.6232	652.6708
494.7861	649.9142
494.949	668.0797
495.1119	662.7577
495.2748	649.2145
495.4377	649.7927
495.6006	620.2307
495.7635	598.8101
495.9264	614.1221
496.0892	636.2168
496.2521	662.5415
496.4149	656.1605
496.5778	642.6177
496.7407	635.4116
496.9035	643.0884
497.0663	643.8016
497.2291	655.1425
497.3919	663.0953
497.5547	676.1035
497.7176	663.7083
497.8804	647.2296
498.0432	630.8914
498.2059	610.2962
498.3687	584.7722
498.5315	593.1924
498.6942	632.1435
498.857	649.7957
499.0198	658.8043
499.1825	660.2686
499.3452	649.8666
499.508	650.7491
499.6707	659.1941
499.8334	655.2219
499.9962	638.3331
500.1589	628.8752
500.3216	620.1206
500.4843	616.1642
500.6469	601.2037
500.8096	609.5222
500.9723	641.2338
501.135	647.9762
501.2976	634.0215
501.4603	610.7849
501.623	614.1498
501.7856	606.1051
501.9482	619.4188
502.1109	628.4266
502.2735	634.2096
502.4361	639.9908
502.5987	647.3808
502.7614	640.9399
502.924	649.8788
503.0865	664.462
503.2491	668.1415
503.4117	658.3013
503.5743	649.484
503.7368	636.1122
503.8994	618.2225
504.062	594.3563
504.2245	596.9261
504.3871	640.0322
504.5496	677.478
504.7121	675.5886
504.8746	665.4823
505.0372	649.6184
505.1997	651.598
505.3622	670.9528
505.5247	671.9784
505.6872	679.7303
505.8497	686.5474
506.0121	704.1694
506.1746	701.0602
506.3371	687.1808
506.4995	673.189
506.662	673.0684
506.8244	665.0822
506.9869	663.9405
507.1493	661.9202
507.3117	664.8711
507.4742	664.179
507.6366	659.1995
507.799	648.3474
507.9614	641.5026
508.1238	635.5546
508.2862	639.2367
508.4485	658.2215
508.6109	678.0572
508.7733	685.1486
508.9357	680.3691
509.098	680.4228
509.2604	676.3212
509.4227	695.1441
509.5851	685.9163
509.7474	647.2717
509.9097	634.6717
510.072	643.3764
510.2343	652.6152
510.3966	662.9978
510.5589	662.668
510.7212	656.1707
510.8835	645.5103
511.0458	654.4565
511.2081	660.2607
511.3703	664.9683
511.5326	671.8979
511.6949	683.5206
511.8571	685.1461
512.0193	674.2301
512.1816	673.0859
512.3438	645.2136
512.506	626.556
512.6682	629.0211
512.8304	639.2625
512.9926	636.3978
513.1548	638.323
513.317	639.938
513.4792	634.6967
513.6414	635.8829
513.8035	623.6638
513.9657	612.4397
514.1279	612.9869
514.29	617.2202
514.4521	625.1214
514.6143	630.6066
514.7764	632.3517
514.9385	634.2463
515.1006	634.6241
515.2628	636.0661
515.4249	643.6887
515.587	639.2797
515.7491	630.2359
515.9111	643.494
516.0732	631.8228
516.2353	628.6774
