SPECTRUM DATA FILE
SpectrumCount:	1
PixelCount:	3648
UserName:	ToughBook User
SampleName:	
LightSource:	
Comments:	
DeviceName:	Qwave
DeviceManufacturer:	Broadcom
DeviceSerialNo:	11311

Name:	last spectrum
Date:	2024-05-02T14:34:40.1378634+02:00
ExposureTime:	0.02
TemporalAvg:	1
IntensityUnit:	normalizedCounts
CCDLoadLevel:	0.1616074
Temperature:	31.49347
DiagramColor:	200
ProcessingSteps:	335

Wavelength [nm]	Intensity1
334.421	37.50672
334.5891	43.28211
334.7573	38.67432
334.9254	37.22361
335.0935	37.49667
335.2616	38.85352
335.4297	41.12764
335.5978	42.96664
335.7659	34.72375
335.934	32.77547
336.1021	36.64185
336.2701	38.95476
336.4382	37.39848
336.6063	41.22268
336.7744	41.40344
336.9424	32.0247
337.1105	33.89925
337.2785	38.02056
337.4466	38.17039
337.6146	40.4133
337.7827	40.68612
337.9507	43.17154
338.1187	43.62962
338.2867	33.2415
338.4548	40.4036
338.6228	38.81244
338.7908	41.02079
338.9588	42.54584
339.1268	40.59822
339.2948	38.31808
339.4628	42.6432
339.6308	45.34521
339.7988	38.75406
339.9667	43.32915
340.1347	43.14698
340.3027	42.76188
340.4707	42.52832
340.6386	41.49612
340.8066	35.80713
340.9745	39.12109
341.1425	39.03746
341.3104	41.24441
341.4784	38.20497
341.6463	39.55253
341.8142	42.26711
341.9821	42.03244
342.1501	45.50415
342.318	48.12482
342.4859	45.34689
342.6538	46.88619
342.8217	47.12204
342.9896	45.4229
343.1575	47.24994
343.3254	47.29799
343.4933	46.18526
343.6612	48.00307
343.829	38.68437
343.9969	41.18267
344.1648	42.36565
344.3326	37.51688
344.5005	38.54099
344.6683	43.05467
344.8362	42.75355
345.004	41.65845
345.1719	45.81329
345.3397	48.41054
345.5075	45.77917
345.6754	45.54752
345.8432	43.29074
346.011	44.16013
346.1788	48.33762
346.3466	45.36467
346.5144	42.5834
346.6822	45.03916
346.85	51.02311
347.0178	48.1222
347.1856	43.29087
347.3534	41.80697
347.5211	44.82906
347.6889	42.62918
347.8567	48.5569
348.0244	48.50463
348.1922	53.07909
348.3599	51.36662
348.5277	49.56778
348.6954	50.76432
348.8632	44.28169
349.0309	44.47182
349.1986	46.36117
349.3663	49.20021
349.5341	45.21334
349.7018	47.12449
349.8695	50.84012
350.0372	53.09437
350.2049	57.26915
350.3726	54.27386
350.5403	56.16372
350.7079	55.46779
350.8756	52.40984
351.0433	53.86389
351.211	51.10782
351.3786	55.90101
351.5463	56.91379
351.714	57.31368
351.8816	56.93441
352.0493	56.43431
352.2169	52.93142
352.3846	47.14416
352.5522	47.9942
352.7198	51.24048
352.8875	56.22807
353.0551	55.45295
353.2227	59.18789
353.3903	58.26421
353.5579	57.08386
353.7255	65.02227
353.8931	64.80256
354.0607	61.43067
354.2283	59.18723
354.3958	65.9891
354.5634	64.41106
354.731	66.31992
354.8986	63.36094
355.0661	63.38316
355.2337	65.06998
355.4012	58.87019
355.5688	64.39616
355.7363	61.33241
355.9039	61.27533
356.0714	58.56763
356.239	59.28315
356.4065	58.45493
356.574	49.62183
356.7415	51.94574
356.909	51.80237
357.0765	57.55961
357.244	54.4199
357.4115	57.91541
357.579	54.53185
357.7465	53.17027
357.914	51.15859
358.0815	43.50265
358.249	46.44869
358.4164	47.45684
358.5839	47.33904
358.7513	45.1715
358.9188	51.60289
359.0862	58.21757
359.2537	63.03914
359.4211	64.64458
359.5886	68.65092
359.756	68.84142
359.9234	71.63056
360.0909	68.87302
360.2583	61.2705
360.4257	59.212
360.5931	58.07461
360.7605	61.49319
360.9279	57.12161
361.0953	63.04203
361.2627	65.18693
361.4301	63.29185
361.5974	62.35645
361.7648	62.57345
361.9322	62.96334
362.0995	63.497
362.2669	63.62394
362.4343	68.82633
362.6016	78.5573
362.769	76.80697
362.9363	68.09216
363.1036	64.10144
363.271	64.89619
363.4383	68.12748
363.6056	70.7113
363.7729	74.80109
363.9402	75.05595
364.1075	77.34637
364.2748	73.81332
364.4421	73.63993
364.6094	69.44649
364.7767	67.57111
364.944	69.86527
365.1113	71.60696
365.2786	78.11832
365.4458	84.95217
365.6131	82.30387
365.7803	85.06432
365.9476	91.53742
366.1148	88.79851
366.2821	85.98208
366.4493	84.29664
366.6166	82.62717
366.7838	82.45747
366.951	83.55757
367.1182	85.51687
367.2855	89.18697
367.4527	88.41251
367.6199	80.0326
367.7871	77.37944
367.9543	74.99855
368.1215	75.79075
368.2886	86.35248
368.4558	83.13512
368.623	76.74186
368.7902	81.3941
368.9573	81.47826
369.1245	86.52008
369.2917	88.96199
369.4588	90.395
369.6259	94.21619
369.7931	93.4066
369.9602	95.51113
370.1274	93.32347
370.2945	87.96081
370.4616	80.95209
370.6287	81.40223
370.7958	81.2486
370.963	86.78883
371.1301	91.92514
371.2971	101.7262
371.4643	102.4001
371.6313	100.1205
371.7984	89.62353
371.9655	80.53461
372.1326	75.8027
372.2997	80.73479
372.4667	87.95296
372.6338	92.35941
372.8008	90.78461
372.9679	93.40563
373.1349	88.15917
373.3019	77.56981
373.469	69.33404
373.636	66.88367
373.803	78.38113
373.9701	90.83333
374.1371	89.45447
374.3041	87.97717
374.4711	79.22691
374.6381	73.79753
374.8051	69.94994
374.9721	79.92258
375.1391	91.66732
375.3061	106.1556
375.473	107.9878
375.64	107.3908
375.8069	100.2662
375.9739	92.83024
376.1409	91.08047
376.3078	95.68657
376.4748	91.83783
376.6417	96.62619
376.8087	97.05425
376.9756	100.6275
377.1425	108.8823
377.3094	111.8766
377.4763	119.4134
377.6432	122.6276
377.8102	118.8748
377.9771	116.7296
378.144	116.8528
378.3109	123.3734
378.4777	116.1977
378.6446	112.3574
378.8115	101.4209
378.9784	104.9107
379.1452	103.2104
379.3121	105.7016
379.4789	91.13736
379.6458	92.21105
379.8127	97.85105
379.9795	104.9091
380.1463	114.6857
380.3131	117.8562
380.48	121.9121
380.6468	119.2449
380.8136	118.4556
380.9804	123.1679
381.1472	118.4777
381.314	113.2901
381.4808	105.1505
381.6476	101.5902
381.8144	97.93234
381.9812	96.27932
382.148	90.5582
382.3147	89.17275
382.4815	86.28739
382.6483	79.09054
382.815	80.94284
382.9818	82.43113
383.1485	80.10289
383.3153	76.57394
383.482	82.09444
383.6487	80.48141
383.8155	79.14178
383.9822	86.43379
384.1489	92.72195
384.3156	107.3412
384.4823	119.4459
384.649	117.6184
384.8157	120.2274
384.9824	118.8417
385.1491	117.305
385.3158	115.9603
385.4825	118.7337
385.6491	109.6143
385.8158	105.4459
385.9825	105.3683
386.1491	110.0382
386.3157	124.5489
386.4824	130.8479
386.649	127.222
386.8157	120.1151
386.9823	112.91
387.1489	107.3106
387.3156	111.4655
387.4821	124.3841
387.6488	123.6929
387.8154	115.1349
387.982	115.2614
388.1486	114.9749
388.3152	108.5398
388.4818	112.8733
388.6483	113.6609
388.8149	117.7159
388.9815	120.7778
389.148	127.5944
389.3146	135.5555
389.4811	139.1486
389.6477	143.3812
389.8142	146.4281
389.9808	142.3715
390.1473	142.4812
390.3138	136.0991
390.4804	136.1532
390.6469	136.2371
390.8134	148.3752
390.9799	153.3662
391.1464	163.841
391.3129	163.3513
391.4794	161.0399
391.6459	153.9165
391.8124	148.4577
391.9789	137.6321
392.1453	138.2165
392.3118	133.1489
392.4782	129.3981
392.6447	118.7048
392.8112	97.90196
392.9776	87.34585
393.144	74.0617
393.3105	71.16042
393.4769	67.95913
393.6433	80.7699
393.8098	96.67094
393.9762	114.3249
394.1426	130.5562
394.309	132.3687
394.4754	134.8426
394.6418	148.1083
394.8082	157.9662
394.9746	165.5826
395.141	168.4969
395.3073	173.9906
395.4737	172.705
395.64	174.6122
395.8064	173.9044
395.9728	156.8168
396.1391	142.6208
396.3055	124.1036
396.4718	107.5964
396.6381	88.16165
396.8045	77.96287
396.9708	83.19406
397.1371	97.4085
397.3034	122.2205
397.4697	145.768
397.636	163.6458
397.8023	173.999
397.9686	190.0625
398.1349	197.8449
398.3012	199.7027
398.4675	206.0066
398.6337	211.0934
398.8	212.5587
398.9662	217.2509
399.1325	218.8372
399.2988	216.1185
399.465	222.9604
399.6313	214.5165
399.7975	215.4194
399.9637	222.3111
400.1299	221.7508
400.2961	222.7417
400.4624	222.4233
400.6286	213.5651
400.7948	224.1631
400.961	230.3827
401.1272	237.1277
401.2934	233.5515
401.4595	237.8568
401.6257	248.6972
401.7919	242.7788
401.9581	239.6585
402.1242	247.5856
402.2904	247.1789
402.4565	249.8088
402.6227	248.0061
402.7888	242.5056
402.955	240.493
403.1211	222.4677
403.2872	218.474
403.4533	222.4594
403.6194	239.22
403.7856	247.7405
403.9517	253.8869
404.1177	253.761
404.2838	239.8371
404.4499	227.2029
404.616	221.4924
404.7821	231.8244
404.9482	245.2752
405.1142	257.4322
405.2803	258.0912
405.4464	246.3784
405.6124	242.3883
405.7784	237.4788
405.9445	239.9206
406.1105	245.1297
406.2766	234.9345
406.4426	230.4792
406.6086	239.9842
406.7746	251.6303
406.9406	254.3498
407.1066	257.485
407.2726	255.8832
407.4386	253.9299
407.6046	253.6019
407.7706	247.086
407.9366	256.0582
408.1025	271.3659
408.2685	275.8549
408.4344	284.0892
408.6004	280.122
408.7664	285.1919
408.9323	285.3224
409.0983	295.1016
409.2642	290.2952
409.4301	280.2691
409.596	272.0732
409.762	264.4987
409.9279	251.8326
410.0938	233.4548
410.2597	236.4332
410.4256	249.9956
410.5915	273.6844
410.7574	279.9787
410.9232	290.6783
411.0891	299.2467
411.255	295.305
411.4209	303.2372
411.5867	323.2119
411.7526	311.1279
411.9184	306.609
412.0843	296.1018
412.2501	300.8985
412.4159	311.18
412.5818	306.0472
412.7476	294.7614
412.9134	288.6104
413.0792	287.4955
413.245	283.8411
413.4108	285.0897
413.5766	301.2337
413.7424	317.5019
413.9082	322.414
414.074	315.5274
414.2397	307.6261
414.4055	299.2266
414.5713	298.9273
414.737	307.3336
414.9028	309.7834
415.0685	305.0358
415.2343	302.4323
415.4	296.8985
415.5658	297.8033
415.7315	300.6584
415.8972	313.1655
416.0629	324.0106
416.2286	328.6119
416.3943	331.31
416.56	326.8094
416.7257	324.5558
416.8914	316.5621
417.0571	312.9363
417.2228	294.9287
417.3884	299.0903
417.5541	308.5374
417.7198	311.9636
417.8854	321.173
418.0511	317.2785
418.2167	309.2886
418.3824	309.4271
418.548	309.1432
418.7136	316.2817
418.8792	318.1863
419.0449	326.2918
419.2105	329.6668
419.3761	329.2709
419.5417	322.0944
419.7073	310.8655
419.8729	305.6093
420.0385	309.6375
420.204	317.3412
420.3696	332.163
420.5352	339.9454
420.7007	349.9014
420.8663	348.8446
421.0319	356.2326
421.1974	359.3096
421.3629	360.6779
421.5285	346.2047
421.694	341.2234
421.8595	354.8022
422.0251	365.1537
422.1906	359.3064
422.3561	339.325
422.5216	302.2545
422.6871	285.4484
422.8526	317.1097
423.0181	352.2334
423.1835	365.1396
423.349	355.4298
423.5145	337.7561
423.68	331.8589
423.8454	342.5681
424.0109	348.6518
424.1763	361.3377
424.3418	366.3841
424.5072	368.1675
424.6726	366.5848
424.838	343.8585
425.0035	335.2585
425.1689	348.6694
425.3343	345.7439
425.4997	352.2997
425.6651	359.799
425.8305	345.542
425.9959	339.0738
426.1613	350.7527
426.3267	370.6801
426.492	380.1438
426.6574	377.3571
426.8228	357.0664
426.9881	327.0175
427.1534	308.0685
427.3188	309.9907
427.4841	323.7383
427.6495	350.1997
427.8148	371.1016
427.9801	370.1957
428.1454	359.821
428.3107	351.3002
428.476	360.2991
428.6414	353.7224
428.8066	333.9106
428.9719	323.7628
429.1372	327.9226
429.3025	340.2253
429.4678	338.5555
429.633	323.7191
429.7983	295.1895
429.9636	272.1964
430.1288	263.2629
430.294	270.9292
430.4593	274.3282
430.6245	260.5931
430.7897	249.1027
430.955	253.2251
431.1202	264.7052
431.2854	299.6223
431.4506	358.1016
431.6158	405.2384
431.781	432.0734
431.9462	436.327
432.1114	414.0774
432.2766	377.0484
432.4417	345.8936
432.6069	329.3632
432.772	365.355
432.9372	398.7611
433.1024	410.4694
433.2675	418.1253
433.4326	415.9072
433.5977	400.851
433.7629	369.343
433.928	323.7729
434.0931	316.2741
434.2582	344.0829
434.4233	373.159
434.5884	407.0258
434.7535	424.2945
434.9186	426.0382
435.0837	414.1423
435.2488	397.2407
435.4138	399.09
435.5789	417.8427
435.744	424.6709
435.909	430.8127
436.0741	447.4606
436.2391	454.4784
436.4042	458.155
436.5692	459.6016
436.7342	458.3704
436.8992	452.1265
437.0643	444.947
437.2293	435.7049
437.3943	421.1613
437.5593	420.9608
437.7243	433.0352
437.8893	457.2865
438.0542	447.2578
438.2192	400.3952
438.3842	363.5663
438.5491	366.0876
438.7141	410.6714
438.8791	432.3233
439.044	431.807
439.209	438.1027
439.3739	442.2129
439.5388	452.2352
439.7037	455.0269
439.8687	456.4536
440.0336	448.7286
440.1985	446.7155
440.3634	422.4012
440.5283	406.7738
440.6932	419.7426
440.8581	455.2003
441.0229	484.2386
441.1878	490.2755
441.3527	491.5909
441.5175	465.1378
441.6824	466.2035
441.8472	491.3262
442.0121	504.8569
442.1769	496.6369
442.3418	497.8685
442.5066	488.1436
442.6714	479.598
442.8362	495.6086
443.001	497.455
443.1659	489.2688
443.3307	485.2379
443.4955	472.6321
443.6602	484.0305
443.825	501.9864
443.9898	510.9738
444.1546	499.5777
444.3193	477.3718
444.4841	493.3208
444.6488	517.2368
444.8136	522.1431
444.9783	512.8845
445.1431	513.2311
445.3078	489.539
445.4725	476.3257
445.6372	462.6935
445.802	479.0428
445.9667	474.0107
446.1314	470.6873
446.2961	481.6612
446.4608	499.096
446.6255	498.2975
446.7901	508.4598
446.9548	515.7936
447.1195	526.0338
447.2841	538.9362
447.4488	560.0391
447.6134	563.7955
447.7781	553.741
447.9427	540.0937
448.1074	521.0527
448.272	515.7298
448.4366	542.2167
448.6012	553.0272
448.7658	556.7167
448.9305	546.5703
449.095	534.8758
449.2596	544.1555
449.4242	545.7603
449.5888	548.9847
449.7534	563.1729
449.9179	574.2701
450.0825	576.622
450.2471	586.6795
450.4116	600.5119
450.5762	603.0865
450.7407	608.5297
450.9052	602.2775
451.0698	603.1297
451.2343	583.5448
451.3988	585.1891
451.5633	577.423
451.7278	577.4264
451.8923	582.3314
452.0568	587.4313
452.2213	592.4603
452.3858	569.1741
452.5503	551.2684
452.7148	531.4515
452.8792	530.1501
453.0437	547.8513
453.2081	551.9446
453.3726	533.8266
453.537	545.3607
453.7015	560.5629
453.8659	588.9824
454.0303	597.2214
454.1947	590.2156
454.3592	583.355
454.5236	583.506
454.688	569.2686
454.8524	557.981
455.0168	560.4886
455.1811	570.9437
455.3455	571.9166
455.5099	561.7675
455.6743	578.3923
455.8386	606.4106
456.003	610.937
456.1673	606.0113
456.3317	581.8255
456.496	573.9448
456.6603	585.3484
456.8246	616.9501
456.989	609.8015
457.1533	601.6309
457.3176	597.9848
457.4819	606.3758
457.6462	613.0349
457.8105	597.5153
457.9748	589.9693
458.1391	575.6891
458.3033	572.2678
458.4676	573.3294
458.6319	579.6869
458.7961	599.0616
458.9604	594.754
459.1246	592.9817
459.2888	588.2739
459.4531	586.587
459.6173	577.2266
459.7815	579.9124
459.9457	579.9883
460.11	582.365
460.2741	594.9465
460.4384	587.6984
460.6025	593.3027
460.7667	614.0374
460.9309	621.3397
461.0951	611.3929
461.2592	609.8666
461.4234	615.3712
461.5876	612.1854
461.7517	611.9098
461.9159	619.8973
462.08	620.4338
462.2441	626.454
462.4082	626.4355
462.5724	631.8306
462.7365	623.8553
462.9006	616.2322
463.0647	629.5474
463.2288	629.3735
463.3929	627.9954
463.557	624.1442
463.721	603.5464
463.8851	606.0792
464.0492	607.6249
464.2132	617.2074
464.3773	622.4697
464.5414	608.6447
464.7054	591.8474
464.8694	599.8859
465.0334	612.0263
465.1975	612.7875
465.3615	624.944
465.5255	616.1471
465.6895	626.1571
465.8535	645.587
466.0175	649.4713
466.1815	640.7928
466.3455	633.8223
466.5095	609.8624
466.6734	585.3165
466.8374	586.8003
467.0014	603.7974
467.1653	624.1348
467.3293	634.4203
467.4932	640.2899
467.6571	653.1461
467.8211	636.6084
467.985	622.5049
468.1489	626.6423
468.3128	637.7437
468.4767	636.4995
468.6406	651.9835
468.8045	654.7018
468.9684	642.5032
469.1323	646.0276
469.2962	651.2174
469.46	651.9197
469.6239	656.1547
469.7878	638.142
469.9516	635.2234
470.1154	621.7188
470.2793	605.0522
470.4431	604.6926
470.607	610.8242
470.7708	618.9562
470.9346	632.3374
471.0984	639.5927
471.2622	634.8848
471.426	636.704
471.5898	650.9738
471.7536	663.4707
471.9174	685.5776
472.0811	671.6312
472.2449	683.5139
472.4087	682.1658
472.5724	684.5549
472.7362	659.9322
472.8999	632.2143
473.0637	632.7498
473.2274	644.0718
473.3911	650.8492
473.5548	645.4468
473.7185	644.4541
473.8822	652.035
474.0459	672.6686
474.2096	667.478
474.3733	672.0077
474.537	673.2019
474.7007	667.0915
474.8643	674.2554
475.028	676.5896
475.1917	659.2538
475.3553	650.0137
475.519	647.3389
475.6826	650.896
475.8463	652.0524
476.0099	660.7711
476.1735	637.166
476.3371	634.6543
476.5007	614.06
476.6643	618.3777
476.8279	637.0813
476.9915	654.8398
477.1551	655.2407
477.3187	654.035
477.4823	673.7481
477.6458	686.3487
477.8094	693.1735
477.9729	681.4388
478.1365	672.5239
478.3	652.9651
478.4636	638.1783
478.6271	639.6691
478.7906	652.5197
478.9541	642.8317
479.1176	652.556
479.2812	668.5922
479.4447	683.5533
479.6082	696.2574
479.7716	685.6493
479.9351	674.8948
480.0986	678.8657
480.2621	673.4747
480.4255	673.6023
480.589	664.9723
480.7524	659.7436
480.9159	667.605
481.0793	674.0845
481.2428	672.8848
481.4062	681.2349
481.5696	697.0905
481.733	690.0452
481.8964	684.0255
482.0598	688.0594
482.2232	680.6522
482.3866	664.608
482.55	674.3443
482.7134	680.5633
482.8768	672.237
483.0401	672.4994
483.2035	669.7368
483.3668	677.0253
483.5302	679.6506
483.6935	679.277
483.8568	673.5121
484.0202	656.978
484.1835	648.5877
484.3468	658.6014
484.5101	672.298
484.6734	671.9971
484.8367	670.0346
485	662.7025
485.1633	665.021
485.3266	654.9026
485.4899	628.423
485.6531	605.2443
485.8164	568.019
485.9796	522.0294
486.1429	492.6039
486.3061	495.9552
486.4694	545.2833
486.6326	591.6685
486.7958	627.9134
486.959	631.1899
487.1223	608.4374
487.2855	610.0891
487.4486	631.4775
487.6118	647.6224
487.775	657.9055
487.9382	670.3754
488.1014	679.5104
488.2646	679.4786
488.4277	669.671
488.5909	642.3834
488.754	639.0233
488.9171	622.8505
489.0803	610.4708
489.2434	622.0576
489.4066	669.9185
489.5697	708.4463
489.7328	718.9495
489.8959	698.3522
490.059	691.3153
490.2221	675.9933
490.3852	672.5575
490.5482	692.9371
490.7113	688.6332
490.8744	667.0097
491.0374	662.2721
491.2005	656.011
491.3636	675.9942
491.5266	686.2299
491.6896	671.8805
491.8527	629.801
492.0157	602.5494
492.1787	607.8372
492.3417	627.9794
492.5047	651.1082
492.6677	671.393
492.8307	690.4925
492.9937	695.8259
493.1567	686.9863
493.3196	676.0091
493.4826	667.4561
493.6456	658.0281
493.8085	639.5965
493.9715	643.2886
494.1344	658.7981
494.2974	675.1179
494.4603	686.8875
494.6232	693.0249
494.7861	707.0001
494.949	709.7059
495.1119	687.0704
495.2748	696.6359
495.4377	698.9968
495.6006	658.6263
495.7635	635.5523
495.9264	640.0034
496.0892	678.733
496.2521	715.0471
496.4149	709.11
496.5778	695.3411
496.7407	675.3739
496.9035	670.9698
497.0663	688.4885
497.2291	702.5787
497.3919	712.6784
497.5547	709.7623
497.7176	699.1465
497.8804	687.5015
498.0432	671.5015
498.2059	651.3865
498.3687	629.6863
498.5315	641.2088
498.6942	675.835
498.857	690.6165
499.0198	701.4902
499.1825	696.0743
499.3452	688.7903
499.508	687.4784
499.6707	699.7275
499.8334	687.6438
499.9962	677.9916
500.1589	667.9475
500.3216	657.9695
500.4843	647.623
500.6469	652.2082
500.8096	669.8926
500.9723	677.4328
501.135	672.2236
501.2976	652.0031
501.4603	645.0223
501.623	650.2816
501.7856	656.1115
501.9482	665.1896
502.1109	675.8267
502.2735	679.0549
502.4361	675.5878
502.5987	675.5514
502.7614	674.2027
502.924	685.6364
503.0865	705.6627
503.2491	715.3688
503.4117	710.6591
503.5743	692.3132
503.7368	677.92
503.8994	661.5345
504.062	644.7392
504.2245	641.2704
504.3871	671.0197
504.5496	712.0601
504.7121	720.9924
504.8746	700.8234
505.0372	672.5818
505.1997	675.6641
505.3622	711.7903
505.5247	724.6013
505.6872	723.2009
505.8497	733.9821
506.0121	750.6475
506.1746	744.6965
506.3371	720.4589
506.4995	710.5065
506.662	700.5389
506.8244	701.2676
506.9869	703.0672
507.1493	701.8049
507.3117	704.1265
507.4742	704.7293
507.6366	704.4407
507.799	688.9557
507.9614	667.507
508.1238	662.9752
508.2862	685.2381
508.4485	698.9464
508.6109	697.2757
508.7733	708.7178
508.9357	715.5426
509.098	715.4831
509.2604	720.1711
509.4227	726.8849
509.5851	721.301
509.7474	696.3546
509.9097	683.8052
510.072	680.3777
510.2343	695.3973
510.3966	704.3695
510.5589	701.7593
510.7212	686.2631
510.8835	670.5441
511.0458	676.6307
511.2081	693.7521
511.3703	703.4775
511.5326	722.6342
511.6949	721.4877
511.8571	714.0557
512.0193	710.6679
512.1816	688.5529
512.3438	666.4376
512.506	655.6981
512.6682	665.9398
512.8304	680.6319
512.9926	677.9042
513.1548	677.7938
513.317	681.0262
513.4792	688.0026
513.6414	675.447
513.8035	657.7316
513.9657	641.46
514.1279	635.3224
514.29	650.1051
514.4521	662.5031
514.6143	654.3384
514.7764	666.709
514.9385	663.4945
515.1006	662.5696
515.2628	675.8473
515.4249	668.7175
515.587	667.6694
515.7491	682.7512
515.9111	684.0211
516.0732	684.2953
516.2353	668.683
516.3973	636.9552
