SPECTRUM DATA FILE
SpectrumCount:	1
PixelCount:	3648
UserName:	ToughBook User
SampleName:	
LightSource:	
Comments:	
DeviceName:	Qwave
DeviceManufacturer:	Broadcom
DeviceSerialNo:	11311

Name:	last spectrum
Date:	2024-05-02T14:34:50.4699022+02:00
ExposureTime:	0.02
TemporalAvg:	1
IntensityUnit:	normalizedCounts
CCDLoadLevel:	0.1490062
Temperature:	31.71158
DiagramColor:	200
ProcessingSteps:	335

Wavelength [nm]	Intensity1
334.421	44.68964
334.5891	43.24809
334.7573	40.06071
334.9254	34.82934
335.0935	37.159
335.2616	42.63014
335.4297	39.17405
335.5978	38.00842
335.7659	36.07028
335.934	31.70506
336.1021	31.61978
336.2701	31.27796
336.4382	37.69418
336.6063	37.42924
336.7744	35.89183
336.9424	35.22555
337.1105	34.04142
337.2785	33.83747
337.4466	38.70859
337.6146	41.64595
337.7827	41.27092
337.9507	38.78792
338.1187	40.45509
338.2867	35.74563
338.4548	40.05418
338.6228	33.17674
338.7908	33.17735
338.9588	34.62947
339.1268	36.61691
339.2948	37.21198
339.4628	36.044
339.6308	37.91977
339.7988	40.06078
339.9667	39.28584
340.1347	36.34755
340.3027	36.68462
340.4707	44.11044
340.6386	41.83826
340.8066	42.27831
340.9745	41.46991
341.1425	40.02385
341.3104	40.41096
341.4784	41.29198
341.6463	41.29395
341.8142	42.97427
341.9821	46.0463
342.1501	41.21027
342.318	42.48856
342.4859	45.50011
342.6538	43.2048
342.8217	44.89172
342.9896	46.17276
343.1575	43.38761
343.3254	44.46995
343.4933	39.3596
343.6612	38.00127
343.829	37.51593
343.9969	43.19442
344.1648	40.65167
344.3326	38.40358
344.5005	38.58033
344.6683	40.88039
344.8362	47.37394
345.004	50.78476
345.1719	47.6219
345.3397	46.58992
345.5075	40.8462
345.6754	43.75019
345.8432	38.14553
346.011	42.95962
346.1788	41.03752
346.3466	40.94036
346.5144	44.34547
346.6822	48.22246
346.85	47.29324
347.0178	42.86302
347.1856	43.92589
347.3534	43.50687
347.5211	42.2917
347.6889	38.83486
347.8567	45.60866
348.0244	42.48278
348.1922	43.64107
348.3599	40.70491
348.5277	48.20245
348.6954	43.11083
348.8632	42.74242
349.0309	45.08764
349.1986	44.24097
349.3663	43.48781
349.5341	45.64989
349.7018	47.27272
349.8695	49.15605
350.0372	54.03782
350.2049	54.44893
350.3726	49.44859
350.5403	52.83187
350.7079	48.90581
350.8756	49.52277
351.0433	53.81734
351.211	51.24885
351.3786	43.94945
351.5463	49.82893
351.714	56.00711
351.8816	51.43504
352.0493	45.84451
352.2169	44.64623
352.3846	47.17395
352.5522	50.36041
352.7198	50.20198
352.8875	52.38482
353.0551	54.90983
353.2227	58.14833
353.3903	59.20843
353.5579	60.18012
353.7255	62.73621
353.8931	57.69598
354.0607	55.40486
354.2283	56.65612
354.3958	61.18536
354.5634	55.40036
354.731	62.66261
354.8986	62.40882
355.0661	54.6939
355.2337	57.63698
355.4012	54.41919
355.5688	55.58369
355.7363	54.55817
355.9039	58.37219
356.0714	55.24992
356.239	58.51978
356.4065	54.16342
356.574	49.14283
356.7415	50.62683
356.909	50.26004
357.0765	49.66049
357.244	54.74865
357.4115	51.58784
357.579	50.13552
357.7465	49.93974
357.914	47.25334
358.0815	45.85199
358.249	44.30101
358.4164	42.03413
358.5839	44.58007
358.7513	45.78391
358.9188	49.77774
359.0862	54.58444
359.2537	59.73532
359.4211	61.83759
359.5886	58.86838
359.756	71.03711
359.9234	73.21581
360.0909	66.06654
360.2583	59.41631
360.4257	61.03204
360.5931	51.9497
360.7605	56.2765
360.9279	60.42737
361.0953	56.14077
361.2627	55.4096
361.4301	57.49851
361.5974	52.36029
361.7648	56.35186
361.9322	55.51823
362.0995	56.66521
362.2669	67.96309
362.4343	71.8912
362.6016	79.03108
362.769	69.99875
362.9363	62.15039
363.1036	63.98436
363.271	60.28799
363.4383	58.60096
363.6056	65.72329
363.7729	69.70285
363.9402	72.36379
364.1075	70.30919
364.2748	68.91474
364.4421	70.00288
364.6094	64.88944
364.7767	60.7705
364.944	71.56667
365.1113	75.37557
365.2786	74.6125
365.4458	72.01957
365.6131	77.25747
365.7803	87.04197
365.9476	84.41931
366.1148	75.28665
366.2821	76.98733
366.4493	78.24157
366.6166	80.7671
366.7838	83.11277
366.951	78.28734
367.1182	74.76457
367.2855	74.32047
367.4527	75.7543
367.6199	74.34875
367.7871	73.55166
367.9543	75.72858
368.1215	72.90203
368.2886	70.64427
368.4558	74.14394
368.623	73.33466
368.7902	72.94805
368.9573	75.18285
369.1245	87.13747
369.2917	85.90347
369.4588	83.28228
369.6259	89.51225
369.7931	92.88395
369.9602	87.92717
370.1274	86.78528
370.2945	81.60831
370.4616	76.08697
370.6287	76.40516
370.7958	76.59702
370.963	80.47499
371.1301	87.90566
371.2971	94.45731
371.4643	93.86909
371.6313	89.38159
371.7984	83.79987
371.9655	71.76481
372.1326	72.51356
372.2997	76.39695
372.4667	85.79045
372.6338	90.24807
372.8008	87.56733
372.9679	87.73337
373.1349	80.17503
373.3019	64.63107
373.469	64.395
373.636	64.66606
373.803	76.64129
373.9701	84.13811
374.1371	84.83341
374.3041	80.73565
374.4711	74.28879
374.6381	71.19229
374.8051	64.48808
374.9721	73.86645
375.1391	87.39289
375.3061	95.4401
375.473	96.32294
375.64	95.66939
375.8069	85.71788
375.9739	91.85177
376.1409	89.89033
376.3078	89.97105
376.4748	87.82141
376.6417	86.63008
376.8087	94.64857
376.9756	101.019
377.1425	101.4848
377.3094	108.8421
377.4763	106.6408
377.6432	110.2158
377.8102	112.0074
377.9771	114.4711
378.144	116.647
378.3109	117.3514
378.4777	114.7853
378.6446	101.8779
378.8115	98.97899
378.9784	97.86526
379.1452	98.7974
379.3121	94.01204
379.4789	97.09109
379.6458	95.47406
379.8127	95.82686
379.9795	99.33208
380.1463	105.2062
380.3131	115.1146
380.48	118.0333
380.6468	110.2708
380.8136	117.2349
380.9804	115.6173
381.1472	107.8754
381.314	105.8873
381.4808	91.89684
381.6476	92.22064
381.8144	93.19714
381.9812	84.92463
382.148	90.59967
382.3147	80.36843
382.4815	78.65647
382.6483	75.54018
382.815	78.07965
382.9818	76.10683
383.1485	74.45312
383.3153	76.27727
383.482	75.11994
383.6487	76.60372
383.8155	75.85101
383.9822	81.95887
384.1489	91.51242
384.3156	101.0758
384.4823	107.5607
384.649	111.1275
384.8157	106.2769
384.9824	105.2677
385.1491	109.4349
385.3158	109.501
385.4825	106.617
385.6491	101.305
385.8158	100.089
385.9825	98.24372
386.1491	106.5941
386.3157	110.7523
386.4824	114.8254
386.649	113.2678
386.8157	107.9318
386.9823	103.1839
387.1489	101.9424
387.3156	103.0543
387.4821	116.5955
387.6488	108.4721
387.8154	106.1287
387.982	107.7766
388.1486	107.8743
388.3152	108.6009
388.4818	105.6682
388.6483	100.2505
388.8149	105.2683
388.9815	114.6282
389.148	125.671
389.3146	133.5752
389.4811	133.5824
389.6477	134.6142
389.8142	135.5365
389.9808	130.9612
390.1473	130.4293
390.3138	128.0504
390.4804	126.004
390.6469	132.4174
390.8134	143.0648
390.9799	141.3022
391.1464	144.1725
391.3129	151.5312
391.4794	150.1622
391.6459	144.4949
391.8124	141.0029
391.9789	134.3278
392.1453	131.4228
392.3118	121.9559
392.4782	111.684
392.6447	106.0438
392.8112	93.24673
392.9776	82.4895
393.144	66.21915
393.3105	61.15807
393.4769	64.87759
393.6433	76.72068
393.8098	92.61138
393.9762	106.3665
394.1426	113.662
394.309	117.5627
394.4754	130.7583
394.6418	131.689
394.8082	145.5107
394.9746	153.4572
395.141	155.5302
395.3073	160.1965
395.4737	163.3628
395.64	164.4041
395.8064	154.358
395.9728	147.7616
396.1391	132.1877
396.3055	110.0201
396.4718	100.0368
396.6381	85.82985
396.8045	73.96039
396.9708	79.50839
397.1371	90.92264
397.3034	109.8924
397.4697	132.2589
397.636	152.7097
397.8023	176.3095
397.9686	181.2802
398.1349	182.2875
398.3012	181.6333
398.4675	186.7101
398.6337	191.4248
398.8	195.2117
398.9662	204.1224
399.1325	205.2886
399.2988	205.2287
399.465	202.5674
399.6313	200.7801
399.7975	201.704
399.9637	207.8973
400.1299	221.0925
400.2961	216.6693
400.4624	196.3523
400.6286	202.8785
400.7948	202.5971
400.961	217.023
401.1272	218.2671
401.2934	224.8457
401.4595	227.8224
401.6257	229.4684
401.7919	221.7531
401.9581	219.29
402.1242	224.8097
402.2904	230.5745
402.4565	232.9518
402.6227	226.6786
402.7888	224.0337
402.955	222.0305
403.1211	212.142
403.2872	202.8827
403.4533	207.7075
403.6194	224.5038
403.7856	243.686
403.9517	250.2101
404.1177	244.6544
404.2838	220.7205
404.4499	204.1807
404.616	203.7247
404.7821	209.5278
404.9482	231.0057
405.1142	245.5927
405.2803	241.479
405.4464	229.901
405.6124	227.8794
405.7784	235.1049
405.9445	234.3321
406.1105	229.1909
406.2766	210.9503
406.4426	215.1723
406.6086	229.2206
406.7746	235.7602
406.9406	244.2437
407.1066	237.5848
407.2726	235.4945
407.4386	236.0484
407.6046	226.6508
407.7706	233.1479
407.9366	241.9922
408.1025	253.2488
408.2685	255.8608
408.4344	254.2667
408.6004	262.9012
408.7664	273.1714
408.9323	276.4485
409.0983	280.4711
409.2642	269.7952
409.4301	266.8616
409.596	258.8339
409.762	250.9276
409.9279	234.7737
410.0938	211.6626
410.2597	216.0825
410.4256	241.2948
410.5915	257.6436
410.7574	264.963
410.9232	274.0727
411.0891	270.1245
411.255	283.7089
411.4209	287.6771
411.5867	280.9058
411.7526	279.6696
411.9184	279.4842
412.0843	284.7112
412.2501	283.4593
412.4159	282.1555
412.5818	280.8603
412.7476	282.9483
412.9134	279.2129
413.0792	270.8416
413.245	265.2989
413.4108	266.5771
413.5766	285.7099
413.7424	288.0012
413.9082	295.9741
414.074	293.5939
414.2397	282.6711
414.4055	276.5099
414.5713	274.6043
414.737	288.2305
414.9028	295.4146
415.0685	289.1128
415.2343	292.9225
415.4	293.3362
415.5658	284.9174
415.7315	283.4724
415.8972	283.6767
416.0629	294.9725
416.2286	317.5855
416.3943	309.3826
416.56	305.432
416.7257	298.9703
416.8914	300.2522
417.0571	288.149
417.2228	279.1205
417.3884	272.2282
417.5541	279.7623
417.7198	288.1898
417.8854	291.1539
418.0511	288.2284
418.2167	291.8649
418.3824	289.7341
418.548	284.6199
418.7136	289.0317
418.8792	287.8811
419.0449	300.7664
419.2105	319.8971
419.3761	314.9284
419.5417	305.3677
419.7073	290.8616
419.8729	283.414
420.0385	280.7844
420.204	292.3672
420.3696	297.7747
420.5352	316.2024
420.7007	328.2406
420.8663	333.6251
421.0319	333.8299
421.1974	332.2536
421.3629	334.3218
421.5285	325.7216
421.694	323.6037
421.8595	340.7939
422.0251	348.1025
422.1906	342.2659
422.3561	306.1897
422.5216	285.3734
422.6871	269.1064
422.8526	286.4165
423.0181	330.455
423.1835	336.2689
423.349	328.4206
423.5145	321.8917
423.68	320.3355
423.8454	317.9239
424.0109	329.8929
424.1763	333.8224
424.3418	342.5715
424.5072	347.7799
424.6726	334.1461
424.838	319.334
425.0035	321.0956
425.1689	327.8474
425.3343	328.8848
425.4997	322.7614
425.6651	328.1918
425.8305	334.7462
425.9959	312.1279
426.1613	320.5867
426.3267	337.1306
426.492	350.8372
426.6574	350.0307
426.8228	330.7989
426.9881	310.4336
427.1534	292.3896
427.3188	285.8755
427.4841	300.1769
427.6495	333.6938
427.8148	337.704
427.9801	349.6227
428.1454	342.6028
428.3107	333.3267
428.476	331.8661
428.6414	319.4869
428.8066	308.8722
428.9719	302.7886
429.1372	312.3037
429.3025	315.9596
429.4678	324.0018
429.633	311.5287
429.7983	287.3089
429.9636	245.4776
430.1288	243.3701
430.294	247.736
430.4593	248.0586
430.6245	241.7872
430.7897	236.402
430.955	243.7567
431.1202	261.1682
431.2854	289.6282
431.4506	328.0337
431.6158	369.4213
431.781	403.1987
431.9462	403.5921
432.1114	380.1058
432.2766	345.3796
432.4417	313.9837
432.6069	309.424
432.772	338.0633
432.9372	384.6634
433.1024	402.0713
433.2675	402.3478
433.4326	398.8135
433.5977	373.0806
433.7629	340.5582
433.928	307.3307
434.0931	300.5383
434.2582	320.7885
434.4233	352.5906
434.5884	384.5293
434.7535	402.9306
434.9186	403.0541
435.0837	386.4175
435.2488	370.1549
435.4138	376.0041
435.5789	388.2443
435.744	401.9554
435.909	399.8446
436.0741	413.9385
436.2391	422.5428
436.4042	440.7612
436.5692	429.7517
436.7342	425.7396
436.8992	419.7745
437.0643	417.6691
437.2293	405.3152
437.3943	397.4921
437.5593	396.1832
437.7243	404.6848
437.8893	413.7461
438.0542	399.1317
438.2192	368.9155
438.3842	341.1057
438.5491	338.9575
438.7141	374.471
438.8791	391.5994
439.044	398.4542
439.209	406.929
439.3739	414.063
439.5388	415.8611
439.7037	430.7643
439.8687	428.1533
440.0336	416.5247
440.1985	418.2182
440.3634	404.5007
440.5283	398.0387
440.6932	405.5286
440.8581	422.3489
441.0229	451.7338
441.1878	458.0054
441.3527	453.1025
441.5175	439.359
441.6824	434.4797
441.8472	461.3118
442.0121	466.3614
442.1769	460.3184
442.3418	456.8884
442.5066	459.2598
442.6714	466.4074
442.8362	462.7831
443.001	462.7021
443.1659	458.154
443.3307	459.2615
443.4955	448.5685
443.6602	443.0284
443.825	468.5862
443.9898	469.8022
444.1546	462.3605
444.3193	453.2805
444.4841	470.0944
444.6488	480.7602
444.8136	495.9525
444.9783	491.6047
445.1431	489.1047
445.3078	467.0236
445.4725	448.5005
445.6372	434.0376
445.802	429.0521
445.9667	435.2262
446.1314	443.9814
446.2961	464.0482
446.4608	474.4662
446.6255	476.6135
446.7901	473.5259
446.9548	484.9283
447.1195	485.9891
447.2841	497.6239
447.4488	517.3956
447.6134	525.8431
447.7781	532.5914
447.9427	508.4732
448.1074	481.9537
448.272	484.1256
448.4366	512.9708
448.6012	524.4567
448.7658	518.4495
448.9305	505.3027
449.095	503.2619
449.2596	509.3294
449.4242	510.0163
449.5888	509.1115
449.7534	524.3963
449.9179	526.3498
450.0825	540.8505
450.2471	546.3438
450.4116	555.6428
450.5762	567.5242
450.7407	563.4483
450.9052	563.9747
451.0698	567.3217
451.2343	550.7655
451.3988	550.3895
451.5633	537.3428
451.7278	543.3949
451.8923	541.7178
452.0568	546.9976
452.2213	544.0652
452.3858	537.9911
452.5503	513.4967
452.7148	497.4339
452.8792	490.605
453.0437	491.7653
453.2081	503.3867
453.3726	498.5521
453.537	505.4551
453.7015	525.8122
453.8659	548.4479
454.0303	561.9861
454.1947	554.7642
454.3592	546.3413
454.5236	542.7033
454.688	521.2097
454.8524	520.5042
455.0168	509.5104
455.1811	520.967
455.3455	537.2969
455.5099	540.0542
455.6743	547.5439
455.8386	561.5892
456.003	572.1289
456.1673	574.598
456.3317	577.256
456.496	546.4309
456.6603	547.2693
456.8246	565.0572
456.989	566.772
457.1533	552.1242
457.3176	561.8816
457.4819	581.33
457.6462	584.9764
457.8105	574.0728
457.9748	559.8677
458.1391	532.5385
458.3033	528.3285
458.4676	536.5757
458.6319	542.2147
458.7961	556.2344
458.9604	562.7982
459.1246	550.7459
459.2888	540.3093
459.4531	552.9733
459.6173	553.2159
459.7815	551.9061
459.9457	550.2127
460.11	549.0645
460.2741	559.5612
460.4384	556.7087
460.6025	564.0487
460.7667	576.265
460.9309	589.5559
461.0951	572.5089
461.2592	550.2762
461.4234	562.1822
461.5876	571.6295
461.7517	569.352
461.9159	563.9984
462.08	570.0258
462.2441	583.447
462.4082	580.6274
462.5724	571.053
462.7365	568.1466
462.9006	584.4452
463.0647	586.6693
463.2288	581.8325
463.3929	580.6112
463.557	575.0739
463.721	573.3518
463.8851	573.041
464.0492	566.9485
464.2132	578.0893
464.3773	585.1418
464.5414	570.5336
464.7054	556.149
464.8694	554.0891
465.0334	561.4652
465.1975	575.407
465.3615	587.2205
465.5255	571.7759
465.6895	572.952
465.8535	593.988
466.0175	612.1736
466.1815	613.3843
466.3455	587.6984
466.5095	564.6761
466.6734	542.0214
466.8374	539.8514
467.0014	566.1157
467.1653	584.0544
467.3293	580.7784
467.4932	596.8669
467.6571	603.9269
467.8211	601.7438
467.985	587.568
468.1489	585.8328
468.3128	593.4874
468.4767	611.8721
468.6406	605.2623
468.8045	596.4351
468.9684	602.6046
469.1323	607.0692
469.2962	602.157
469.46	603.5914
469.6239	607.051
469.7878	603.1039
469.9516	591.5868
470.1154	574.2314
470.2793	561.2629
470.4431	570.258
470.607	583.3419
470.7708	585.9201
470.9346	581.1277
471.0984	587.08
471.2622	594.8553
471.426	599.5887
471.5898	608.2627
471.7536	630.8001
471.9174	633.6689
472.0811	637.5089
472.2449	638.0324
472.4087	643.9362
472.5724	625.9736
472.7362	610.7172
472.8999	594.2473
473.0637	585.2986
473.2274	583.8796
473.3911	602.2405
473.5548	602.6257
473.7185	604.024
473.8822	602.3432
474.0459	614.5554
474.2096	615.9843
474.3733	622.3423
474.537	627.6489
474.7007	627.9847
474.8643	623.0082
475.028	630.3975
475.1917	626.6873
475.3553	611.1573
475.519	603.9465
475.6826	601.0895
475.8463	614.058
476.0099	617.0783
476.1735	616.1802
476.3371	599.8278
476.5007	587.6779
476.6643	588.6821
476.8279	594.7078
476.9915	612.7412
477.1551	623.3184
477.3187	621.0115
477.4823	628.4518
477.6458	629.9546
477.8094	642.0054
477.9729	637.0406
478.1365	629.4147
478.3	615.741
478.4636	601.4327
478.6271	595.1491
478.7906	596.738
478.9541	604.0958
479.1176	615.447
479.2812	640.6785
479.4447	640.31
479.6082	637.1152
479.7716	647.3074
479.9351	628.1918
480.0986	623.9922
480.2621	628.6331
480.4255	624.067
480.589	616.186
480.7524	609.3459
480.9159	616.9013
481.0793	621.9075
481.2428	620.4323
481.4062	628.6522
481.5696	636.8146
481.733	636.6479
481.8964	640.4532
482.0598	637.2476
482.2232	628.7272
482.3866	615.7343
482.55	615.5836
482.7134	637.0981
482.8768	635.9567
483.0401	622.9537
483.2035	616.9489
483.3668	624.1955
483.5302	631.2132
483.6935	622.2598
483.8568	616.0251
484.0202	609.2921
484.1835	606.4173
484.3468	615.3747
484.5101	622.9446
484.6734	631.2656
484.8367	634.4039
485	629.5005
485.1633	625.8145
485.3266	606.4404
485.4899	597.0659
485.6531	581.2192
485.8164	537.8696
485.9796	483.456
486.1429	457.1043
486.3061	464.7718
486.4694	516.7443
486.6326	565.647
486.7958	589.9284
486.959	581.2759
487.1223	560.3805
487.2855	563.8075
487.4486	582.6074
487.6118	608.2516
487.775	611.1045
487.9382	621.1751
488.1014	631.3366
488.2646	632.4493
488.4277	625.6806
488.5909	604.2833
488.754	600.267
488.9171	579.7798
489.0803	571.1496
489.2434	583.8125
489.4066	610.0616
489.5697	651.8127
489.7328	670.4768
489.8959	658.9677
490.059	643.3115
490.2221	640.1284
490.3852	629.0554
490.5482	629.7209
490.7113	626.7552
490.8744	617.6332
491.0374	602.6758
491.2005	603.3719
491.3636	629.5243
491.5266	633.6784
491.6896	615.6117
491.8527	590.5829
492.0157	554.718
492.1787	555.0837
492.3417	577.721
492.5047	602.2386
492.6677	612.2202
492.8307	641.8527
492.9937	648.7397
493.1567	630.6523
493.3196	626.2897
493.4826	621.0794
493.6456	595.9878
493.8085	600.3413
493.9715	601.7334
494.1344	618.7906
494.2974	644.3189
494.4603	650.2823
494.6232	640.896
494.7861	645.1655
494.949	655.0469
495.1119	659.3983
495.2748	644.4777
495.4377	630.2156
495.6006	606.3745
495.7635	593.8055
495.9264	602.5141
496.0892	632.7097
496.2521	670.0256
496.4149	662.6481
496.5778	648.7486
496.7407	634.3314
496.9035	634.6166
497.0663	640.629
497.2291	644.1784
497.3919	660.1255
497.5547	667.2685
497.7176	646.2407
497.8804	634.6912
498.0432	626.9125
498.2059	609.419
498.3687	582.1417
498.5315	593.0395
498.6942	616.8179
498.857	639.7065
499.0198	642.2125
499.1825	634.7761
499.3452	632.2449
499.508	642.4468
499.6707	646.7791
499.8334	642.5723
499.9962	638.6401
500.1589	619.8712
500.3216	613.4206
500.4843	608.2841
500.6469	603.8091
500.8096	615.3774
500.9723	630.3688
501.135	627.7426
501.2976	608.0863
501.4603	602.1009
501.623	600.3753
501.7856	616.1057
501.9482	620.7789
502.1109	621.5223
502.2735	632.4866
502.4361	633.9893
502.5987	638.7139
502.7614	637.0061
502.924	646.2414
503.0865	655.8973
503.2491	675.3641
503.4117	663.0559
503.5743	655.2014
503.7368	634.6841
503.8994	613.8879
504.062	598.702
504.2245	613.1564
504.3871	634.0425
504.5496	666.1322
504.7121	663.8188
504.8746	650.6047
505.0372	642.6519
505.1997	645.8599
505.3622	656.5037
505.5247	660.74
505.6872	678.7264
505.8497	690.2999
506.0121	691.7219
506.1746	689.552
506.3371	682.033
506.4995	670.4076
506.662	656.0573
506.8244	649.5901
506.9869	660.8187
507.1493	658.0104
507.3117	655.4072
507.4742	657.7047
507.6366	657.3069
507.799	639.1403
507.9614	623.0378
508.1238	605.0939
508.2862	630.7793
508.4485	647.844
508.6109	662.844
508.7733	669.5548
508.9357	664.676
509.098	671.9585
509.2604	687.3348
509.4227	676.0627
509.5851	661.8227
509.7474	643.9641
509.9097	626.7708
510.072	635.8712
510.2343	650.171
510.3966	667.6366
510.5589	667.7378
510.7212	644.6884
510.8835	632.9142
511.0458	634.4634
511.2081	653.1522
511.3703	666.3311
511.5326	666.0533
511.6949	672.2465
511.8571	669.3087
512.0193	664.0777
512.1816	653.5396
512.3438	632.9292
512.506	612.7242
512.6682	621.8184
512.8304	617.9736
512.9926	620.803
513.1548	622.8588
513.317	629.6764
513.4792	641.3515
513.6414	635.6251
513.8035	622.7267
513.9657	594.1964
514.1279	586.061
514.29	603.8004
514.4521	608.3492
514.6143	616.9768
514.7764	617.6405
514.9385	627.4403
515.1006	632.7274
515.2628	622.5281
515.4249	620.9962
515.587	626.0685
515.7491	632.9692
515.9111	630.4829
516.0732	627.9494
516.2353	622.0817
