SPECTRUM DATA FILE
SpectrumCount:	1
PixelCount:	3648
UserName:	ToughBook User
SampleName:	
LightSource:	
Comments:	
DeviceName:	Qwave
DeviceManufacturer:	Broadcom
DeviceSerialNo:	11311

Name:	last spectrum
Date:	2024-05-02T14:34:28.6071694+02:00
ExposureTime:	0.02
TemporalAvg:	1
IntensityUnit:	normalizedCounts
CCDLoadLevel:	0.1629686
Temperature:	31.49347
DiagramColor:	200
ProcessingSteps:	335

Wavelength [nm]	Intensity1
334.421	34.08448
334.5891	36.50972
334.7573	42.17047
334.9254	36.24857
335.0935	39.61246
335.2616	48.03052
335.4297	41.23692
335.5978	36.30207
335.7659	34.68533
335.934	35.02513
336.1021	38.24501
336.2701	31.01923
336.4382	33.36929
336.6063	37.31476
336.7744	33.17532
336.9424	32.57135
337.1105	36.19684
337.2785	39.00581
337.4466	37.62565
337.6146	38.21394
337.7827	34.51632
337.9507	38.05876
338.1187	37.47401
338.2867	38.43906
338.4548	43.34079
338.6228	46.38155
338.7908	47.29229
338.9588	38.48107
339.1268	40.21908
339.2948	39.8287
339.4628	36.77412
339.6308	41.39431
339.7988	44.55308
339.9667	40.87344
340.1347	43.3595
340.3027	40.08797
340.4707	44.84179
340.6386	41.62653
340.8066	41.03006
340.9745	45.33814
341.1425	41.424
341.3104	45.82527
341.4784	42.79325
341.6463	45.21025
341.8142	42.57289
341.9821	40.52018
342.1501	45.0567
342.318	42.47071
342.4859	42.54147
342.6538	46.44589
342.8217	52.59405
342.9896	51.46704
343.1575	50.28835
343.3254	47.46709
343.4933	48.77464
343.6612	46.19315
343.829	42.51476
343.9969	41.20669
344.1648	39.28753
344.3326	38.06964
344.5005	37.31327
344.6683	38.87305
344.8362	42.35338
345.004	47.90018
345.1719	49.79237
345.3397	48.65902
345.5075	47.27002
345.6754	49.95558
345.8432	45.17727
346.011	45.63631
346.1788	46.48152
346.3466	48.03817
346.5144	51.88615
346.6822	50.51821
346.85	51.28487
347.0178	46.8568
347.1856	47.91285
347.3534	45.09612
347.5211	45.53203
347.6889	47.28358
347.8567	47.51385
348.0244	47.00039
348.1922	47.93727
348.3599	50.26269
348.5277	48.06702
348.6954	48.66644
348.8632	46.55144
349.0309	44.59972
349.1986	44.96799
349.3663	42.82676
349.5341	47.34978
349.7018	48.35166
349.8695	52.05872
350.0372	53.83669
350.2049	55.99307
350.3726	58.30703
350.5403	52.8057
350.7079	49.81671
350.8756	49.6972
351.0433	50.58683
351.211	50.64573
351.3786	55.78983
351.5463	51.40614
351.714	57.81214
351.8816	57.30336
352.0493	55.95193
352.2169	50.10639
352.3846	44.88356
352.5522	52.09462
352.7198	51.87756
352.8875	51.93877
353.0551	54.58208
353.2227	53.9792
353.3903	56.33694
353.5579	60.97303
353.7255	62.48405
353.8931	59.90414
354.0607	62.38869
354.2283	59.40832
354.3958	65.39613
354.5634	70.21905
354.731	65.84093
354.8986	64.44014
355.0661	64.88062
355.2337	65.52641
355.4012	63.96185
355.5688	57.47808
355.7363	59.52431
355.9039	59.97647
356.0714	66.00138
356.239	57.38606
356.4065	56.2593
356.574	53.63029
356.7415	50.00034
356.909	50.73477
357.0765	54.05631
357.244	51.00517
357.4115	50.29795
357.579	57.29225
357.7465	54.85107
357.914	47.71554
358.0815	48.22572
358.249	47.21509
358.4164	48.07312
358.5839	51.07104
358.7513	51.43474
358.9188	51.07064
359.0862	57.76459
359.2537	61.88516
359.4211	71.98898
359.5886	72.01431
359.756	77.53551
359.9234	73.5648
360.0909	68.61189
360.2583	64.82362
360.4257	57.05418
360.5931	62.01591
360.7605	57.51913
360.9279	58.66656
361.0953	63.34975
361.2627	60.97915
361.4301	63.61067
361.5974	56.80873
361.7648	58.923
361.9322	61.00074
362.0995	67.84834
362.2669	70.47629
362.4343	79.98066
362.6016	79.99932
362.769	80.6147
362.9363	71.42471
363.1036	66.40474
363.271	63.66807
363.4383	67.0185
363.6056	75.99081
363.7729	76.59954
363.9402	76.14728
364.1075	74.08192
364.2748	78.38504
364.4421	77.18107
364.6094	72.57858
364.7767	68.56558
364.944	72.56521
365.1113	79.65501
365.2786	82.44952
365.4458	90.07848
365.6131	96.35163
365.7803	95.74772
365.9476	89.03363
366.1148	89.84985
366.2821	88.90163
366.4493	87.01879
366.6166	88.20246
366.7838	82.6879
366.951	86.9259
367.1182	93.48191
367.2855	89.0231
367.4527	86.80231
367.6199	82.92098
367.7871	81.13009
367.9543	78.75665
368.1215	81.24883
368.2886	83.00465
368.4558	81.38254
368.623	78.94315
368.7902	81.52135
368.9573	84.4038
369.1245	89.90868
369.2917	88.82573
369.4588	87.07552
369.6259	93.49059
369.7931	103.3165
369.9602	102.6877
370.1274	100.373
370.2945	92.29207
370.4616	78.42822
370.6287	82.18358
370.7958	78.97027
370.963	90.08522
371.1301	94.77906
371.2971	106.656
371.4643	110.5137
371.6313	107.5956
371.7984	91.67583
371.9655	84.50249
372.1326	80.07946
372.2997	90.91173
372.4667	100.1217
372.6338	96.39351
372.8008	92.6893
372.9679	96.12045
373.1349	90.80006
373.3019	82.82868
373.469	71.28078
373.636	71.24924
373.803	84.86325
373.9701	94.45227
374.1371	97.42671
374.3041	84.94324
374.4711	80.09885
374.6381	75.72412
374.8051	72.2098
374.9721	81.75259
375.1391	91.913
375.3061	106.8108
375.473	111.3819
375.64	101.8421
375.8069	87.89697
375.9739	92.21864
376.1409	96.93844
376.3078	97.8903
376.4748	97.70781
376.6417	101.6699
376.8087	101.9729
376.9756	107.1495
377.1425	114.9773
377.3094	112.8997
377.4763	116.257
377.6432	123.0614
377.8102	118.8458
377.9771	128.0281
378.144	131.1687
378.3109	130.5082
378.4777	119.93
378.6446	115.98
378.8115	103.5405
378.9784	105.1268
379.1452	106.0222
379.3121	99.4395
379.4789	98.3484
379.6458	92.77532
379.8127	97.23753
379.9795	104.6678
380.1463	115.1513
380.3131	120.7897
380.48	122.8645
380.6468	121.7942
380.8136	119.1074
380.9804	125.9925
381.1472	120.4857
381.314	116.9681
381.4808	102.2198
381.6476	96.13437
381.8144	99.99916
381.9812	96.58341
382.148	95.33779
382.3147	93.76618
382.4815	89.21479
382.6483	84.42756
382.815	81.36534
382.9818	81.32577
383.1485	82.53128
383.3153	84.8842
383.482	85.91178
383.6487	83.13781
383.8155	83.70557
383.9822	88.44191
384.1489	102.2117
384.3156	115.3524
384.4823	120.69
384.649	129.9521
384.8157	132.9057
384.9824	125.2383
385.1491	128.3322
385.3158	126.5877
385.4825	120.2027
385.6491	107.3174
385.8158	103.5285
385.9825	99.01336
386.1491	109.6358
386.3157	118.3164
386.4824	127.4736
386.649	132.6029
386.8157	123.1328
386.9823	113.8655
387.1489	111.8728
387.3156	118.2219
387.4821	124.8487
387.6488	128.6046
387.8154	120.6354
387.982	113.7387
388.1486	120.0552
388.3152	118.7834
388.4818	116.3486
388.6483	110.1782
388.8149	113.4374
388.9815	129.2883
389.148	143.1715
389.3146	142.0417
389.4811	142.5373
389.6477	151.684
389.8142	147.2376
389.9808	148.7397
390.1473	151.7517
390.3138	136.3284
390.4804	136.461
390.6469	145.6277
390.8134	157.2878
390.9799	160.4252
391.1464	170.2363
391.3129	171.1582
391.4794	163.048
391.6459	165.1778
391.8124	154.3318
391.9789	144.4414
392.1453	139.0036
392.3118	139.5889
392.4782	137.4357
392.6447	119.4838
392.8112	105.9556
392.9776	87.28155
393.144	71.60783
393.3105	68.24354
393.4769	69.91005
393.6433	78.20478
393.8098	94.19438
393.9762	123.0097
394.1426	120.8202
394.309	138.194
394.4754	143.0845
394.6418	154.527
394.8082	164.1339
394.9746	176.4598
395.141	182.2289
395.3073	178.3363
395.4737	168.9879
395.64	176.0403
395.8064	176.6051
395.9728	163.9866
396.1391	144.893
396.3055	125.5477
396.4718	110.8508
396.6381	91.49603
396.8045	78.60861
396.9708	87.69502
397.1371	106.9223
397.3034	126.4003
397.4697	145.3671
397.636	161.7169
397.8023	186.4778
397.9686	205.6742
398.1349	207.5023
398.3012	206.7231
398.4675	209.2679
398.6337	214.4602
398.8	220.6004
398.9662	228.286
399.1325	229.1186
399.2988	225.3953
399.465	224.5309
399.6313	225.2337
399.7975	227.3488
399.9637	229.7867
400.1299	235.295
400.2961	233.6709
400.4624	224.3819
400.6286	220.7254
400.7948	231.8774
400.961	236.1797
401.1272	253.4308
401.2934	251.3454
401.4595	252.5297
401.6257	257.692
401.7919	249.4371
401.9581	249.3763
402.1242	251.7426
402.2904	251.4342
402.4565	250.304
402.6227	257.2501
402.7888	250.456
402.955	238.0709
403.1211	239.9231
403.2872	226.4221
403.4533	237.1075
403.6194	261.4256
403.7856	268.0075
403.9517	268.0085
404.1177	261.5916
404.2838	245.2603
404.4499	231.7326
404.616	223.353
404.7821	240.8315
404.9482	261.3136
405.1142	270.8171
405.2803	263.2563
405.4464	254.1082
405.6124	251.8
405.7784	250.7796
405.9445	261.3993
406.1105	247.82
406.2766	236.3495
406.4426	239.3763
406.6086	250.6029
406.7746	263.0724
406.9406	268.8265
407.1066	265.084
407.2726	260.4408
407.4386	267.1459
407.6046	263.9095
407.7706	254.6095
407.9366	270.2562
408.1025	285.5368
408.2685	288.898
408.4344	285.6097
408.6004	291.1779
408.7664	296.2226
408.9323	311.7209
409.0983	310.5112
409.2642	296.6529
409.4301	293.022
409.596	281.3641
409.762	268.4366
409.9279	257.6543
410.0938	237.3217
410.2597	239.175
410.4256	260.4663
410.5915	288.6803
410.7574	286.6158
410.9232	285.3558
411.0891	298.2245
411.255	304.4781
411.4209	313.2845
411.5867	317.3594
411.7526	316.949
411.9184	320.8335
412.0843	312.0672
412.2501	310.3672
412.4159	315.6382
412.5818	319.5923
412.7476	315.5889
412.9134	306.3597
413.0792	292.9186
413.245	293.2206
413.4108	301.6796
413.5766	317.0213
413.7424	336.5267
413.9082	336.4003
414.074	331.7108
414.2397	312.318
414.4055	305.8137
414.5713	310.4634
414.737	321.5367
414.9028	327.9879
415.0685	322.6877
415.2343	308.4139
415.4	303.4232
415.5658	305.4805
415.7315	312.9679
415.8972	322.5473
416.0629	336.1383
416.2286	353.0399
416.3943	357.3561
416.56	345.5117
416.7257	330.2324
416.8914	323.0084
417.0571	318.8902
417.2228	318.7121
417.3884	307.118
417.5541	308.8265
417.7198	320.8665
417.8854	325.7125
418.0511	319.7799
418.2167	312.7803
418.3824	320.5511
418.548	327.4408
418.7136	321.9159
418.8792	325.3651
419.0449	329.8973
419.2105	344.737
419.3761	346.0265
419.5417	337.4426
419.7073	322.6198
419.8729	312.8953
420.0385	320.2914
420.204	324.2529
420.3696	342.1946
420.5352	359.1777
420.7007	363.3741
420.8663	365.6618
421.0319	361.7961
421.1974	374.011
421.3629	371.1161
421.5285	362.7124
421.694	356.5239
421.8595	366.9003
422.0251	379.6602
422.1906	374.6391
422.3561	355.0014
422.5216	322.6807
422.6871	300.6296
422.8526	330.5594
423.0181	359.0259
423.1835	371.8557
423.349	375.3029
423.5145	352.4701
423.68	357.3455
423.8454	350.784
424.0109	365.6078
424.1763	374.2209
424.3418	372.1122
424.5072	388.2546
424.6726	376.1481
424.838	354.0191
425.0035	349.6794
425.1689	361.0902
425.3343	363.5225
425.4997	372.1195
425.6651	371.7364
425.8305	367.6144
425.9959	356.8774
426.1613	356.0453
426.3267	381.3494
426.492	394.2032
426.6574	388.2849
426.8228	361.7258
426.9881	339.3743
427.1534	321.2995
427.3188	319.5609
427.4841	336.9667
427.6495	359.9146
427.8148	374.7687
427.9801	375.2918
428.1454	374.0601
428.3107	368.3573
428.476	366.3994
428.6414	357.6815
428.8066	344.5846
428.9719	340.2076
429.1372	347.1632
429.3025	362.9346
429.4678	362.0739
429.633	337.047
429.7983	310.0431
429.9636	278.2928
430.1288	262.8104
430.294	268.4536
430.4593	278.5344
430.6245	275.8433
430.7897	268.6349
430.955	269.271
431.1202	281.2518
431.2854	314.6693
431.4506	362.079
431.6158	415.9879
431.781	452.8757
431.9462	454.1929
432.1114	425.7044
432.2766	384.7028
432.4417	340.8716
432.6069	343.0479
432.772	380.668
432.9372	412.7437
433.1024	439.2278
433.2675	450.9972
433.4326	444.0332
433.5977	414.4179
433.7629	373.8159
433.928	339.0577
434.0931	326.7197
434.2582	347.8394
434.4233	389.9703
434.5884	423.4994
434.7535	436.0324
434.9186	440.3046
435.0837	429.4948
435.2488	413.8593
435.4138	411.2741
435.5789	438.7521
435.744	445.5679
435.909	450.818
436.0741	459.9107
436.2391	468.528
436.4042	482.3167
436.5692	474.3317
436.7342	467.2479
436.8992	463.3459
437.0643	461.6886
437.2293	447.567
437.3943	438.0022
437.5593	430.0149
437.7243	450.2243
437.8893	459.9283
438.0542	448.2987
438.2192	403.0958
438.3842	376.5843
438.5491	373.0912
438.7141	409.2671
438.8791	442.1872
439.044	446.1059
439.209	450.5852
439.3739	453.0783
439.5388	451.7214
439.7037	475.7509
439.8687	477.6165
440.0336	475.301
440.1985	455.3436
440.3634	429.7899
440.5283	428.7308
440.6932	447.0559
440.8581	467.0775
441.0229	488.9418
441.1878	502.9698
441.3527	494.7363
441.5175	479.2831
441.6824	482.274
441.8472	504.5653
442.0121	529.5194
442.1769	510.4519
442.3418	504.2605
442.5066	499.8459
442.6714	509.4691
442.8362	521.4438
443.001	527.0902
443.1659	507.248
443.3307	500.1181
443.4955	493.3566
443.6602	507.0914
443.825	525.879
443.9898	534.1868
444.1546	531.042
444.3193	516.0928
444.4841	527.8426
444.6488	534.2457
444.8136	550.4713
444.9783	544.1899
445.1431	533.2195
445.3078	516.3751
445.4725	500.7666
445.6372	485.0371
445.802	481.0982
445.9667	484.84
446.1314	490.2518
446.2961	508.2258
446.4608	522.2662
446.6255	525.4548
446.7901	529.4015
446.9548	532.7238
447.1195	548.8904
447.2841	554.7798
447.4488	567.8659
447.6134	572.7108
447.7781	572.9973
447.9427	552.652
448.1074	541.2529
448.272	533.3978
448.4366	559.9409
448.6012	577.7582
448.7658	588.3041
448.9305	573.0066
449.095	560.6245
449.2596	558.2851
449.4242	563.2805
449.5888	561.4278
449.7534	569.7921
449.9179	587.2079
450.0825	598.6886
450.2471	600.0494
450.4116	618.3317
450.5762	633.429
450.7407	642.5258
450.9052	632.183
451.0698	620.3688
451.2343	620.5988
451.3988	603.7281
451.5633	595.4551
451.7278	593.0977
451.8923	606.8182
452.0568	615.636
452.2213	613.6115
452.3858	596.3666
452.5503	581.4764
452.7148	547.4952
452.8792	540.8081
453.0437	542.8557
453.2081	551.5554
453.3726	558.3297
453.537	560.9813
453.7015	583.6493
453.8659	608.4944
454.0303	614.6197
454.1947	600.3549
454.3592	601.975
454.5236	608.3888
454.688	604.4096
454.8524	585.6774
455.0168	572.536
455.1811	582.1277
455.3455	591.3981
455.5099	600.4391
455.6743	609.2209
455.8386	614.7078
456.003	629.3763
456.1673	637.9492
456.3317	621.8321
456.496	606.3076
456.6603	613.2073
456.8246	626.5675
456.989	626.9348
457.1533	620.9619
457.3176	623.8343
457.4819	630.567
457.6462	644.189
457.8105	633.4822
457.9748	616.5398
458.1391	600.7358
458.3033	589.7615
458.4676	582.317
458.6319	601.3627
458.7961	612.5847
458.9604	616.7881
459.1246	618.0988
459.2888	616.6748
459.4531	606.4733
459.6173	604.0239
459.7815	611.9417
459.9457	607.7647
460.11	611.7983
460.2741	602.1047
460.4384	608.2712
460.6025	632.1096
460.7667	638.0625
460.9309	645.4955
461.0951	641.9912
461.2592	636.7281
461.4234	642.0427
461.5876	643.6043
461.7517	638.3687
461.9159	631.079
462.08	633.9528
462.2441	649.0649
462.4082	650.4362
462.5724	652.5356
462.7365	649.5433
462.9006	642.8974
463.0647	639.9008
463.2288	645.2711
463.3929	639.0397
463.557	636.5573
463.721	628.8149
463.8851	615.4291
464.0492	629.7441
464.2132	631.2416
464.3773	632.3029
464.5414	625.8136
464.7054	605.0404
464.8694	615.4614
465.0334	630.9058
465.1975	645.1552
465.3615	643.8795
465.5255	629.9091
465.6895	640.447
465.8535	650.0154
466.0175	659.7958
466.1815	667.9908
466.3455	660.8273
466.5095	628.652
466.6734	603.1075
466.8374	586.8198
467.0014	614.1024
467.1653	645.751
467.3293	662.1361
467.4932	666.6327
467.6571	661.0507
467.8211	657.8302
467.985	641.9122
468.1489	648.8777
468.3128	657.4217
468.4767	664.4763
468.6406	667.6906
468.8045	671.6546
468.9684	670.4741
469.1323	679.0951
469.2962	666.4321
469.46	672.5977
469.6239	680.5027
469.7878	663.198
469.9516	655.7452
470.1154	629.7148
470.2793	629.9527
470.4431	632.5881
470.607	638.3897
470.7708	645.442
470.9346	644.2372
471.0984	651.0521
471.2622	652.2399
471.426	665.5131
471.5898	676.1862
471.7536	695.7036
471.9174	709.0736
472.0811	702.9373
472.2449	697.8347
472.4087	698.4384
472.5724	705.3289
472.7362	680.0089
472.8999	665.5679
473.0637	651.7522
473.2274	658.1618
473.3911	659.1858
473.5548	651.7706
473.7185	664.5353
473.8822	677.9697
474.0459	688.2208
474.2096	697.9037
474.3733	697.8158
474.537	698.2223
474.7007	698.3518
474.8643	692.8295
475.028	685.0032
475.1917	680.175
475.3553	676.9379
475.519	665.5522
475.6826	669.2371
475.8463	676.5547
476.0099	676.6155
476.1735	662.2175
476.3371	654.8735
476.5007	643.4886
476.6643	656.7328
476.8279	662.6522
476.9915	673.398
477.1551	685.2134
477.3187	690.7112
477.4823	695.0557
477.6458	704.0042
477.8094	716.8389
477.9729	715.4929
478.1365	694.2954
478.3	696.8224
478.4636	683.3358
478.6271	674.49
478.7906	671.887
478.9541	661.2753
479.1176	680.3855
479.2812	694.0588
479.4447	713.5113
479.6082	718.97
479.7716	706.0359
479.9351	687.5797
480.0986	685.7448
480.2621	690.0872
480.4255	691.2386
480.589	681.2378
480.7524	678.2985
480.9159	682.9884
481.0793	679.8828
481.2428	690.7732
481.4062	700.1846
481.5696	708.677
481.733	696.2529
481.8964	711.7737
482.0598	705.0181
482.2232	699.122
482.3866	693.891
482.55	700.7584
482.7134	702.1355
482.8768	704.1031
483.0401	696.8839
483.2035	692.7313
483.3668	694.2181
483.5302	698.426
483.6935	700.9264
483.8568	677.1152
484.0202	674.1234
484.1835	673.5137
484.3468	679.4848
484.5101	686.4331
484.6734	695.1901
484.8367	691.1931
485	689.0744
485.1633	684.6099
485.3266	670.1542
485.4899	655.3851
485.6531	632.0137
485.8164	600.1713
485.9796	542.652
486.1429	509.9233
486.3061	514.2549
486.4694	569.3206
486.6326	627.7963
486.7958	650.6916
486.959	634.8568
487.1223	624.2649
487.2855	623.6445
487.4486	641.2713
487.6118	667.9702
487.775	675.3719
487.9382	693.0473
488.1014	701.9633
488.2646	689.3055
488.4277	667.3123
488.5909	671.5201
488.754	660.2167
488.9171	645.8724
489.0803	643.319
489.2434	658.7426
489.4066	694.1129
489.5697	721.2803
489.7328	740.3289
489.8959	724.8355
490.059	704.4561
490.2221	706.9936
490.3852	702.1018
490.5482	708.5543
490.7113	699.605
490.8744	696.8676
491.0374	677.4379
491.2005	675.2681
491.3636	694.9589
491.5266	707.0214
491.6896	681.8793
491.8527	647.2544
492.0157	623.4476
492.1787	625.8537
492.3417	651.922
492.5047	671.6542
492.6677	680.1257
492.8307	698.694
492.9937	718.5598
493.1567	713.3755
493.3196	687.7835
493.4826	673.2155
493.6456	663.7757
493.8085	663.7018
493.9715	674.9358
494.1344	689.0931
494.2974	715.2809
494.4603	719.9387
494.6232	713.4217
494.7861	722.0739
494.949	729.8292
495.1119	725.4025
495.2748	713.7076
495.4377	696.7722
495.6006	680.9854
495.7635	661.2184
495.9264	673.5272
496.0892	706.4576
496.2521	730.4511
496.4149	725.3018
496.5778	709.6888
496.7407	710.8362
496.9035	702.4659
497.0663	709.048
497.2291	718.8693
497.3919	718.4979
497.5547	715.813
497.7176	721.1894
497.8804	707.4167
498.0432	691.8805
498.2059	656.1179
498.3687	642.6784
498.5315	656.2181
498.6942	693.7968
498.857	715.921
499.0198	712.2698
499.1825	716.6128
499.3452	717.5833
499.508	718.6113
499.6707	730.5365
499.8334	726.645
499.9962	706.318
500.1589	692.429
500.3216	690.075
500.4843	664.6042
500.6469	666.1129
500.8096	685.2828
500.9723	701.7049
501.135	693.3155
501.2976	675.6887
501.4603	662.8699
501.623	656.5982
501.7856	663.7396
501.9482	678.3335
502.1109	695.1935
502.2735	695.6978
502.4361	699.5164
502.5987	700.6633
502.7614	695.2502
502.924	705.9229
503.0865	718.6649
503.2491	738.9573
503.4117	740.3796
503.5743	713.9717
503.7368	693.8185
503.8994	683.8163
504.062	653.1893
504.2245	652.2556
504.3871	690.1048
504.5496	733.6532
504.7121	738.5909
504.8746	728.0177
505.0372	707.2629
505.1997	710.2817
505.3622	736.0029
505.5247	736.4834
505.6872	741.393
505.8497	753.3479
506.0121	756.8678
506.1746	758.0957
506.3371	750.3044
506.4995	737.3904
506.662	717.3859
506.8244	710.4232
506.9869	723.2219
507.1493	722.9632
507.3117	716.9089
507.4742	715.5993
507.6366	722.1083
507.799	714.6831
507.9614	690.0784
508.1238	678.7974
508.2862	682.7233
508.4485	706.2348
508.6109	725.8073
508.7733	724.1984
508.9357	731.766
509.098	736.1313
509.2604	745.2782
509.4227	748.4101
509.5851	734.2679
509.7474	708.4688
509.9097	699.0051
510.072	703.5809
510.2343	716.1553
510.3966	718.7769
510.5589	710.9687
510.7212	701.1629
510.8835	699.3897
511.0458	698.0341
511.2081	719.1077
511.3703	734.4992
511.5326	734.1298
511.6949	734.7664
511.8571	738.6681
512.0193	720.0894
512.1816	709.3093
512.3438	697.3524
512.506	688.3608
512.6682	686.7549
512.8304	682.3948
512.9926	685.897
513.1548	688.2372
513.317	696.683
513.4792	701.6242
513.6414	685.3738
513.8035	668.901
513.9657	664.1943
514.1279	670.5901
514.29	671.9413
514.4521	680.6465
514.6143	679.3277
514.7764	683.6422
514.9385	684.7507
515.1006	684.048
515.2628	689.671
515.4249	678.6471
515.587	687.6125
515.7491	695.0908
515.9111	694.0384
516.0732	687.8808
516.2353	677.7505
516.3973	656.0279
