SPECTRUM DATA FILE
SpectrumCount:	1
PixelCount:	3648
UserName:	ToughBook User
SampleName:	
LightSource:	
Comments:	
DeviceName:	Qwave
DeviceManufacturer:	Broadcom
DeviceSerialNo:	11311

Name:	last spectrum
Date:	2024-05-02T14:34:17.1472947+02:00
ExposureTime:	0.02
TemporalAvg:	1
IntensityUnit:	normalizedCounts
CCDLoadLevel:	0.1635419
Temperature:	31.38458
DiagramColor:	200
ProcessingSteps:	335

Wavelength [nm]	Intensity1
334.421	40.89143
334.5891	40.09671
334.7573	35.58944
334.9254	42.06258
335.0935	35.71502
335.2616	40.74156
335.4297	39.36791
335.5978	40.8459
335.7659	37.43375
335.934	33.59963
336.1021	38.29176
336.2701	34.85226
336.4382	40.40557
336.6063	36.17222
336.7744	36.08156
336.9424	37.51707
337.1105	34.34426
337.2785	39.55213
337.4466	41.46935
337.6146	40.72528
337.7827	41.16965
337.9507	37.34078
338.1187	32.54814
338.2867	37.36318
338.4548	44.38329
338.6228	45.0059
338.7908	40.10633
338.9588	40.85633
339.1268	40.81097
339.2948	37.50532
339.4628	42.43185
339.6308	44.41837
339.7988	48.89324
339.9667	38.51765
340.1347	42.63132
340.3027	43.83669
340.4707	39.76334
340.6386	41.92942
340.8066	39.71971
340.9745	40.23571
341.1425	44.55565
341.3104	45.16101
341.4784	39.97784
341.6463	44.3462
341.8142	44.40029
341.9821	43.74728
342.1501	44.88177
342.318	46.97368
342.4859	46.47326
342.6538	42.51401
342.8217	46.1956
342.9896	50.5771
343.1575	49.0139
343.3254	44.85889
343.4933	43.73594
343.6612	39.33378
343.829	44.2768
343.9969	40.83023
344.1648	34.13001
344.3326	39.02382
344.5005	39.19567
344.6683	42.8577
344.8362	43.19455
345.004	44.15403
345.1719	45.00303
345.3397	48.7837
345.5075	47.8077
345.6754	47.39216
345.8432	47.46763
346.011	42.84742
346.1788	43.69793
346.3466	42.49355
346.5144	48.51859
346.6822	47.81915
346.85	51.03803
347.0178	50.14183
347.1856	47.31886
347.3534	46.61248
347.5211	48.81853
347.6889	46.31162
347.8567	48.03991
348.0244	46.7353
348.1922	44.50337
348.3599	48.08268
348.5277	46.96022
348.6954	49.90076
348.8632	47.68592
349.0309	45.36245
349.1986	44.77786
349.3663	44.88076
349.5341	45.46059
349.7018	48.73577
349.8695	49.78894
350.0372	58.33926
350.2049	52.50434
350.3726	56.75224
350.5403	55.22253
350.7079	52.50856
350.8756	56.03171
351.0433	56.05475
351.211	56.8716
351.3786	52.0094
351.5463	52.67057
351.714	56.28241
351.8816	58.18262
352.0493	49.62517
352.2169	52.67792
352.3846	46.76556
352.5522	51.94162
352.7198	52.2961
352.8875	56.98762
353.0551	61.96696
353.2227	60.26497
353.3903	61.94123
353.5579	58.33332
353.7255	65.89966
353.8931	63.62547
354.0607	66.31854
354.2283	66.39695
354.3958	67.57672
354.5634	64.26897
354.731	71.02779
354.8986	63.94965
355.0661	65.11362
355.2337	64.41782
355.4012	61.61973
355.5688	57.62879
355.7363	61.91975
355.9039	62.52783
356.0714	60.01168
356.239	61.03334
356.4065	56.39539
356.574	51.72882
356.7415	51.7245
356.909	52.23159
357.0765	54.01031
357.244	50.74181
357.4115	54.31191
357.579	56.24619
357.7465	54.8687
357.914	49.06316
358.0815	44.88714
358.249	48.85793
358.4164	41.34588
358.5839	44.29705
358.7513	51.35185
358.9188	58.31899
359.0862	62.5715
359.2537	58.88443
359.4211	59.2048
359.5886	70.68335
359.756	72.71613
359.9234	71.50745
360.0909	75.28114
360.2583	67.50348
360.4257	64.2617
360.5931	63.93548
360.7605	58.30829
360.9279	64.98535
361.0953	66.60252
361.2627	66.1757
361.4301	68.56626
361.5974	61.87488
361.7648	59.14699
361.9322	61.52137
362.0995	63.73887
362.2669	67.35235
362.4343	71.04931
362.6016	75.04856
362.769	76.3264
362.9363	71.57852
363.1036	65.10982
363.271	65.54926
363.4383	68.91395
363.6056	71.89764
363.7729	79.20264
363.9402	80.30266
364.1075	82.29872
364.2748	76.54009
364.4421	71.43735
364.6094	69.10191
364.7767	66.33447
364.944	73.70841
365.1113	82.65126
365.2786	81.34443
365.4458	84.9762
365.6131	91.06689
365.7803	88.26653
365.9476	85.63496
366.1148	82.63721
366.2821	84.18861
366.4493	85.82594
366.6166	88.30091
366.7838	87.9581
366.951	78.59013
367.1182	81.41879
367.2855	79.67249
367.4527	82.83765
367.6199	83.32242
367.7871	83.55357
367.9543	83.16341
368.1215	83.07146
368.2886	80.47894
368.4558	83.47716
368.623	80.27689
368.7902	77.99828
368.9573	85.63024
369.1245	94.67831
369.2917	97.05608
369.4588	98.46282
369.6259	97.03456
369.7931	92.76773
369.9602	94.83607
370.1274	101.9681
370.2945	92.5
370.4616	81.0956
370.6287	79.6225
370.7958	84.92692
370.963	87.77953
371.1301	95.95976
371.2971	99.52968
371.4643	103.7142
371.6313	99.97687
371.7984	90.39786
371.9655	83.31823
372.1326	76.54748
372.2997	80.77297
372.4667	98.87141
372.6338	96.60619
372.8008	95.08871
372.9679	92.07328
373.1349	86.84372
373.3019	73.30845
373.469	68.38914
373.636	70.98186
373.803	76.41592
373.9701	88.45751
374.1371	94.14479
374.3041	94.49325
374.4711	81.80514
374.6381	74.88369
374.8051	74.23996
374.9721	82.74438
375.1391	89.81123
375.3061	106.8435
375.473	107.2716
375.64	103.5565
375.8069	97.54473
375.9739	95.692
376.1409	91.5383
376.3078	97.92715
376.4748	103.6024
376.6417	99.93412
376.8087	96.46416
376.9756	101.3058
377.1425	109.8454
377.3094	118.7446
377.4763	112.9046
377.6432	121.2924
377.8102	125.6818
377.9771	130.8854
378.144	131.7848
378.3109	129.0795
378.4777	119.1562
378.6446	108.7774
378.8115	109.0491
378.9784	108.2216
379.1452	106.1217
379.3121	104.8108
379.4789	96.79921
379.6458	95.81851
379.8127	98.18161
379.9795	106.3165
380.1463	115.8095
380.3131	120.3488
380.48	121.7295
380.6468	124.6221
380.8136	125.4499
380.9804	124.8373
381.1472	126.2098
381.314	114.7038
381.4808	106.2409
381.6476	100.0135
381.8144	96.78252
381.9812	98.07631
382.148	93.96382
382.3147	90.94409
382.4815	87.24978
382.6483	77.70676
382.815	80.24005
382.9818	77.7289
383.1485	82.05433
383.3153	85.35186
383.482	82.70177
383.6487	82.94547
383.8155	89.13703
383.9822	95.10949
384.1489	98.86383
384.3156	110.2506
384.4823	122.8145
384.649	126.332
384.8157	123.8835
384.9824	118.5337
385.1491	118.3712
385.3158	116.4137
385.4825	118.3729
385.6491	111.5506
385.8158	106.9615
385.9825	104.3982
386.1491	112.4445
386.3157	123.1062
386.4824	123.0493
386.649	126.0165
386.8157	118.6318
386.9823	118.0979
387.1489	113.0426
387.3156	114.3536
387.4821	123.8708
387.6488	121.0396
387.8154	119.183
387.982	110.5002
388.1486	109.6722
388.3152	117.49
388.4818	114.5447
388.6483	115.3244
388.8149	119.0922
388.9815	127.2914
389.148	132.4224
389.3146	143.5681
389.4811	145.6079
389.6477	144.424
389.8142	145.9939
389.9808	147.5063
390.1473	143.3222
390.3138	139.144
390.4804	145.5513
390.6469	139.6911
390.8134	150.3022
390.9799	161.6582
391.1464	168.7471
391.3129	164.8543
391.4794	163.453
391.6459	158.6972
391.8124	147.3785
391.9789	141.2606
392.1453	144.1864
392.3118	139.4199
392.4782	128.7922
392.6447	119.4913
392.8112	102.8546
392.9776	85.30958
393.144	72.5609
393.3105	70.56333
393.4769	71.83902
393.6433	85.40612
393.8098	100.7532
393.9762	118.6736
394.1426	124.3774
394.309	136.9082
394.4754	139.8672
394.6418	148.6103
394.8082	163.0407
394.9746	176.3533
395.141	177.445
395.3073	184.3957
395.4737	181.8373
395.64	182.6301
395.8064	180.1893
395.9728	163.9832
396.1391	139.7815
396.3055	127.3954
396.4718	115.3161
396.6381	96.91107
396.8045	82.25166
396.9708	86.97939
397.1371	101.3183
397.3034	124.2393
397.4697	143.308
397.636	167.7092
397.8023	181.3987
397.9686	196.0801
398.1349	208.4808
398.3012	209.8572
398.4675	208.6718
398.6337	209.6019
398.8	219.0764
398.9662	220.7668
399.1325	229.8543
399.2988	231.8744
399.465	226.281
399.6313	217.5609
399.7975	222.1442
399.9637	229.7878
400.1299	234.5729
400.2961	234.5552
400.4624	231.5905
400.6286	223.6396
400.7948	232.0678
400.961	237.7942
401.1272	250.7746
401.2934	250.6712
401.4595	250.9774
401.6257	248.0897
401.7919	244.5724
401.9581	252.6706
402.1242	258.1203
402.2904	253.7398
402.4565	255.9381
402.6227	257.6257
402.7888	257.5343
402.955	243.996
403.1211	234.2087
403.2872	223.3626
403.4533	234.1696
403.6194	246.615
403.7856	258.2359
403.9517	263.2389
404.1177	260.5957
404.2838	247.8417
404.4499	238.248
404.616	223.0817
404.7821	241.6638
404.9482	257.5685
405.1142	273.2806
405.2803	258.3955
405.4464	247.3938
405.6124	249.3933
405.7784	244.237
405.9445	246.1441
406.1105	250.6818
406.2766	246.5016
406.4426	240.9545
406.6086	238.0959
406.7746	258.0338
406.9406	263.115
407.1066	258.6812
407.2726	263.2582
407.4386	266.8901
407.6046	259.3334
407.7706	256.8639
407.9366	263.8705
408.1025	280.1943
408.2685	287.1244
408.4344	289.0023
408.6004	292.1674
408.7664	296.8466
408.9323	304.8279
409.0983	300.9068
409.2642	299.3019
409.4301	289.2044
409.596	281.7648
409.762	267.9328
409.9279	254.7403
410.0938	241.1921
410.2597	231.7775
410.4256	249.2856
410.5915	273.7086
410.7574	286.0904
410.9232	306.1478
411.0891	300.5617
411.255	307.968
411.4209	316.0291
411.5867	320.9392
411.7526	312.7642
411.9184	313.2676
412.0843	312.5738
412.2501	322.9509
412.4159	312.1903
412.5818	307.3843
412.7476	306.6054
412.9134	305.2102
413.0792	305.83
413.245	290.6342
413.4108	293.2202
413.5766	309.291
413.7424	329.1147
413.9082	332.9199
414.074	326.4116
414.2397	302.033
414.4055	289.4104
414.5713	306.2449
414.737	319.5433
414.9028	314.8529
415.0685	316.0361
415.2343	315.9436
415.4	311.8875
415.5658	309.2286
415.7315	314.1471
415.8972	325.7438
416.0629	332.8804
416.2286	339.5309
416.3943	340.7785
416.56	336.0081
416.7257	331.914
416.8914	322.253
417.0571	319.6424
417.2228	310.2944
417.3884	304.4048
417.5541	304.3823
417.7198	321.0656
417.8854	330.4308
418.0511	323.176
418.2167	318.8504
418.3824	322.3717
418.548	327.5266
418.7136	316.7777
418.8792	321.8683
419.0449	333.6778
419.2105	340.7663
419.3761	348.795
419.5417	335.0603
419.7073	320.9572
419.8729	313.8091
420.0385	316.5678
420.204	318.1912
420.3696	333.6893
420.5352	349.3189
420.7007	363.736
420.8663	369.2322
421.0319	360.6485
421.1974	375.56
421.3629	364.8075
421.5285	362.9764
421.694	358.1235
421.8595	357.9784
422.0251	372.9285
422.1906	371.9752
422.3561	345.9659
422.5216	315.3766
422.6871	293.7008
422.8526	316.7694
423.0181	354.0384
423.1835	374.7638
423.349	357.0756
423.5145	344.7895
423.68	344.0158
423.8454	349.7805
424.0109	356.7361
424.1763	361.7855
424.3418	371.3006
424.5072	371.2493
424.6726	378.4957
424.838	360.3595
425.0035	346.2558
425.1689	350.4711
425.3343	361.0474
425.4997	369.7038
425.6651	371.5353
425.8305	361.4249
425.9959	338.8222
426.1613	349.8427
426.3267	380.8296
426.492	390.8933
426.6574	388.5965
426.8228	377.7766
426.9881	348.6156
427.1534	320.0629
427.3188	321.4043
427.4841	329.7087
427.6495	358.5624
427.8148	373.3401
427.9801	373.6464
428.1454	373.0675
428.3107	366.8696
428.476	363.7004
428.6414	360.093
428.8066	342.4817
428.9719	329.8203
429.1372	336.2301
429.3025	352.1169
429.4678	350.9919
429.633	330.6678
429.7983	311.0165
429.9636	285.264
430.1288	266.7119
430.294	266.4257
430.4593	277.7729
430.6245	277.8641
430.7897	267.0962
430.955	256.1633
431.1202	280.4893
431.2854	315.9942
431.4506	362.1499
431.6158	404.6543
431.781	444.0187
431.9462	444.3318
432.1114	420.7311
432.2766	380.4988
432.4417	346.2643
432.6069	343.3281
432.772	373.213
432.9372	410.5819
433.1024	433.9921
433.2675	435.3902
433.4326	431.5737
433.5977	423.1231
433.7629	371.8734
433.928	332.3667
434.0931	322.3393
434.2582	344.3867
434.4233	383.9728
434.5884	416.4662
434.7535	424.8196
434.9186	433.792
435.0837	420.4925
435.2488	409.2782
435.4138	410.4822
435.5789	431.8524
435.744	448.9057
435.909	450.2272
436.0741	461.5518
436.2391	469.5838
436.4042	482.6082
436.5692	469.6943
436.7342	473.8236
436.8992	460.1688
437.0643	458.9025
437.2293	446.1328
437.3943	442.4862
437.5593	429.7864
437.7243	441.1323
437.8893	456.1603
438.0542	450.6189
438.2192	408.8064
438.3842	371.2661
438.5491	374.3188
438.7141	414.3854
438.8791	436.6116
439.044	432.9323
439.209	435.5034
439.3739	450.572
439.5388	467.5348
439.7037	478.3343
439.8687	482.8009
440.0336	470.8102
440.1985	452.927
440.3634	436.1068
440.5283	434.4326
440.6932	438.8994
440.8581	461.2413
441.0229	490.6922
441.1878	498.9276
441.3527	505.7205
441.5175	490.2922
441.6824	483.9061
441.8472	502.3882
442.0121	522.1671
442.1769	511.5883
442.3418	505.5764
442.5066	508.3282
442.6714	509.8542
442.8362	508.7999
443.001	506.285
443.1659	510.0577
443.3307	489.6443
443.4955	483.9337
443.6602	500.1156
443.825	513.6369
443.9898	531.8717
444.1546	521.1619
444.3193	510.0966
444.4841	522.9762
444.6488	520.1851
444.8136	530.9573
444.9783	542.0889
445.1431	536.7875
445.3078	508.4525
445.4725	484.7631
445.6372	477.6096
445.802	479.2605
445.9667	483.2836
446.1314	486.5096
446.2961	501.0825
446.4608	524.9693
446.6255	530.5148
446.7901	516.3381
446.9548	520.5925
447.1195	538.0009
447.2841	552.7852
447.4488	568.3051
447.6134	571.1334
447.7781	572.6959
447.9427	552.5532
448.1074	541.9755
448.272	540.8179
448.4366	559.6408
448.6012	577.9072
448.7658	575.1194
448.9305	559.3936
449.095	557.0417
449.2596	559.0804
449.4242	559.3992
449.5888	571.5428
449.7534	573.0657
449.9179	580.5091
450.0825	581.8833
450.2471	596.9041
450.4116	621.8093
450.5762	624.992
450.7407	623.6616
450.9052	613.1841
451.0698	617.2701
451.2343	613.3698
451.3988	606.5134
451.5633	609.7153
451.7278	613.5264
451.8923	608.4967
452.0568	603.0758
452.2213	588.527
452.3858	587.3448
452.5503	570.9742
452.7148	554.031
452.8792	548.6227
453.0437	550.9902
453.2081	555.9487
453.3726	562.6326
453.537	572.4291
453.7015	589.8565
453.8659	607.5974
454.0303	609.4001
454.1947	608.0664
454.3592	607.8991
454.5236	607.173
454.688	590.9047
454.8524	577.8051
455.0168	571.0689
455.1811	571.7589
455.3455	588.2721
455.5099	598.3613
455.6743	596.0871
455.8386	604.767
456.003	629.965
456.1673	627.5635
456.3317	608.1866
456.496	589.1909
456.6603	609.7312
456.8246	621.2319
456.989	624.4141
457.1533	616.8771
457.3176	610.6597
457.4819	636.9252
457.6462	630.4396
457.8105	623.1912
457.9748	601.1437
458.1391	589.3139
458.3033	583.6856
458.4676	583.6497
458.6319	600.6066
458.7961	620.8909
458.9604	623.1169
459.1246	621.279
459.2888	609.3101
459.4531	603.3624
459.6173	598.4548
459.7815	612.3382
459.9457	612.3656
460.11	610.6616
460.2741	605.6442
460.4384	612.6077
460.6025	618.364
460.7667	636.9171
460.9309	636.5995
461.0951	635.9056
461.2592	627.6796
461.4234	626.6277
461.5876	635.7015
461.7517	632.4675
461.9159	632.0219
462.08	636.6761
462.2441	642.847
462.4082	653.5347
462.5724	646.4771
462.7365	637.9437
462.9006	637.9181
463.0647	645.5912
463.2288	648.1248
463.3929	644.8553
463.557	639.6843
463.721	626.2277
463.8851	635.1102
464.0492	635.498
464.2132	644.5532
464.3773	635.221
464.5414	627.1073
464.7054	605.7698
464.8694	608.0288
465.0334	626.2886
465.1975	648.0845
465.3615	642.2634
465.5255	626.7983
465.6895	634.8532
465.8535	645.416
466.0175	658.5436
466.1815	662.5958
466.3455	644.3015
466.5095	623.6119
466.6734	610.575
466.8374	603.4624
467.0014	614.9083
467.1653	640.5393
467.3293	650.8163
467.4932	659.5562
467.6571	667.0731
467.8211	657.6088
467.985	652.2246
468.1489	640.8091
468.3128	649.6225
468.4767	662.0275
468.6406	668.6847
468.8045	661.3343
468.9684	668.5778
469.1323	668.7554
469.2962	669.4396
469.46	670.1885
469.6239	670.7441
469.7878	668.4083
469.9516	650.6403
470.1154	628.6473
470.2793	630.518
470.4431	625.803
470.607	633.1208
470.7708	636.4601
470.9346	642.9169
471.0984	653.5847
471.2622	662.7842
471.426	667.4523
471.5898	663.837
471.7536	683.9084
471.9174	700.0208
472.0811	695.4791
472.2449	700.6951
472.4087	699.8041
472.5724	694.8134
472.7362	674.583
472.8999	648.1154
473.0637	653.032
473.2274	662.2499
473.3911	669.3937
473.5548	670.5661
473.7185	668.7338
473.8822	672.6974
474.0459	683.8546
474.2096	691.5848
474.3733	695.2692
474.537	700.1287
474.7007	694.3699
474.8643	691.7724
475.028	690.7366
475.1917	685.1099
475.3553	681.1694
475.519	674.8951
475.6826	673.3884
475.8463	679.1591
476.0099	678.6239
476.1735	679.2128
476.3371	659.3037
476.5007	656.4562
476.6643	648.0841
476.8279	656.8596
476.9915	672.986
477.1551	682.8553
477.3187	689.7811
477.4823	690.0755
477.6458	691.1808
477.8094	705.3623
477.9729	702.7951
478.1365	704.4818
478.3	683.2762
478.4636	673.2759
478.6271	665.7825
478.7906	665.4855
478.9541	660.8557
479.1176	678.7675
479.2812	692.5344
479.4447	710.0217
479.6082	709.6729
479.7716	704.5262
479.9351	694.9077
480.0986	691.1
480.2621	692.9897
480.4255	686.1981
480.589	687.6207
480.7524	679.3262
480.9159	682.6782
481.0793	684.3772
481.2428	676.4864
481.4062	696.0045
481.5696	705.7659
481.733	704.6107
481.8964	708.2012
482.0598	706.5035
482.2232	695.2946
482.3866	686.3641
482.55	682.3422
482.7134	695.7418
482.8768	695.1967
483.0401	698.9149
483.2035	688.6427
483.3668	689.5793
483.5302	706.0229
483.6935	699.0983
483.8568	680.2139
484.0202	671.0803
484.1835	666.7083
484.3468	669.7624
484.5101	687.6159
484.6734	691.939
484.8367	689.8359
485	689.2332
485.1633	680.7958
485.3266	667.8447
485.4899	652.7982
485.6531	629.9955
485.8164	597.4858
485.9796	555.0491
486.1429	519.2654
486.3061	517.8704
486.4694	572.5406
486.6326	623.1561
486.7958	641.4188
486.959	642.9108
487.1223	621.702
487.2855	617.7979
487.4486	632.5062
487.6118	664.8674
487.775	677.1005
487.9382	688.814
488.1014	692.6253
488.2646	685.0429
488.4277	680.3917
488.5909	677.6022
488.754	650.5927
488.9171	632.7365
489.0803	635.9406
489.2434	648.551
489.4066	682.3326
489.5697	718.34
489.7328	726.5347
489.8959	718.9744
490.059	712.694
490.2221	707.9531
490.3852	708.0252
490.5482	707.7062
490.7113	704.1323
490.8744	687.2754
491.0374	670.7917
491.2005	683.4766
491.3636	697.975
491.5266	708.0889
491.6896	683.1584
491.8527	645.5571
492.0157	618.0875
492.1787	615.2671
492.3417	649.8331
492.5047	669.4458
492.6677	688.0832
492.8307	703.0561
492.9937	716.5985
493.1567	721.9451
493.3196	702.0634
493.4826	688.1445
493.6456	672.0518
493.8085	663.7557
493.9715	672.3415
494.1344	690.6005
494.2974	715.434
494.4603	722.9804
494.6232	716.3398
494.7861	700.6952
494.949	706.3188
495.1119	723.6707
495.2748	721.384
495.4377	709.114
495.6006	677.5962
495.7635	667.9431
495.9264	680.0573
496.0892	696.6702
496.2521	730.4367
496.4149	729.2841
496.5778	713.0579
496.7407	695.9814
496.9035	695.0375
497.0663	697.4427
497.2291	711.6745
497.3919	726.8905
497.5547	723.0016
497.7176	726.4771
497.8804	701.1477
498.0432	687.2314
498.2059	672.1035
498.3687	656.5881
498.5315	657.1763
498.6942	695.2435
498.857	716.1863
499.0198	714.7709
499.1825	712.1177
499.3452	720.1782
499.508	732.4424
499.6707	730.9578
499.8334	722.6616
499.9962	708.5638
500.1589	696.2333
500.3216	693.8644
500.4843	682.4817
500.6469	670.739
500.8096	685.558
500.9723	698.6391
501.135	696.671
501.2976	676.3771
501.4603	664.5532
501.623	662.2085
501.7856	666.9001
501.9482	682.8928
502.1109	688.6865
502.2735	694.0622
502.4361	712.6696
502.5987	707.4335
502.7614	702.2992
502.924	708.1247
503.0865	721.5839
503.2491	728.7159
503.4117	738.9661
503.5743	719.8786
503.7368	693.2287
503.8994	678.8487
504.062	661.6183
504.2245	667.1141
504.3871	700.4839
504.5496	725.5397
504.7121	728.6744
504.8746	712.6926
505.0372	697.7054
505.1997	713.1398
505.3622	736.805
505.5247	749.1523
505.6872	756.0836
505.8497	754.6176
506.0121	752.3976
506.1746	759.7485
506.3371	740.642
506.4995	728.2356
506.662	722.2914
506.8244	717.4322
506.9869	724.6372
507.1493	722.4667
507.3117	725.3405
507.4742	718.0537
507.6366	729.3031
507.799	721.4362
507.9614	692.067
508.1238	674.4802
508.2862	679.1852
508.4485	707.0781
508.6109	735.9458
508.7733	734.9249
508.9357	733.7008
509.098	739.7239
509.2604	744.8221
509.4227	740.3913
509.5851	730.674
509.7474	704.4954
509.9097	688.2319
510.072	701.6456
510.2343	723.3212
510.3966	729.7286
510.5589	719.0552
510.7212	713.0553
510.8835	696.3439
511.0458	700.1136
511.2081	728.3522
511.3703	733.0464
511.5326	734.7704
511.6949	734.4289
511.8571	739.455
512.0193	733.9313
512.1816	716.39
512.3438	699.4734
512.506	684.1384
512.6682	685.0907
512.8304	688.0815
512.9926	693.7327
513.1548	697.8113
513.317	709.0421
513.4792	703.6313
513.6414	696.4824
513.8035	681.6575
513.9657	666.0904
514.1279	668.1233
514.29	668.8322
514.4521	683.9918
514.6143	682.6661
514.7764	678.3857
514.9385	684.2069
515.1006	688.8403
515.2628	687.7972
515.4249	685.665
515.587	696.3619
515.7491	686.556
515.9111	695.7568
516.0732	698.9683
516.2353	692.7871
