SPECTRUM DATA FILE
SpectrumCount:	1
PixelCount:	3648
UserName:	ToughBook User
SampleName:	
LightSource:	
Comments:	
DeviceName:	Qwave
DeviceManufacturer:	Broadcom
DeviceSerialNo:	11311

Name:	last spectrum
Date:	2024-05-02T14:34:02.0383811+02:00
ExposureTime:	0.02
TemporalAvg:	1
IntensityUnit:	normalizedCounts
CCDLoadLevel:	0.1702984
Temperature:	31.27585
DiagramColor:	200
ProcessingSteps:	335

Wavelength [nm]	Intensity1
334.421	38.87477
334.5891	35.79037
334.7573	38.51083
334.9254	42.16342
335.0935	44.27253
335.2616	41.70642
335.4297	38.27815
335.5978	37.26873
335.7659	35.87835
335.934	38.30894
336.1021	36.07773
336.2701	36.41402
336.4382	36.93813
336.6063	36.89494
336.7744	38.92057
336.9424	38.82616
337.1105	35.24819
337.2785	37.46146
337.4466	37.61394
337.6146	47.43976
337.7827	45.74334
337.9507	42.69616
338.1187	34.22349
338.2867	41.27506
338.4548	43.54594
338.6228	37.68245
338.7908	43.83877
338.9588	39.50895
339.1268	41.94714
339.2948	42.69843
339.4628	40.85939
339.6308	46.6109
339.7988	47.7116
339.9667	45.51918
340.1347	43.15871
340.3027	45.9578
340.4707	46.08082
340.6386	41.74003
340.8066	36.27436
340.9745	44.71327
341.1425	42.26525
341.3104	39.69002
341.4784	44.59614
341.6463	40.07607
341.8142	41.78984
341.9821	44.97332
342.1501	42.07756
342.318	48.57334
342.4859	48.22954
342.6538	50.33387
342.8217	51.1048
342.9896	51.46299
343.1575	52.78477
343.3254	47.85311
343.4933	48.40242
343.6612	43.20466
343.829	39.94259
343.9969	40.98941
344.1648	37.28189
344.3326	38.98148
344.5005	43.95189
344.6683	47.00227
344.8362	50.66139
345.004	46.37939
345.1719	52.37171
345.3397	48.85678
345.5075	47.80219
345.6754	47.56343
345.8432	45.05498
346.011	44.89942
346.1788	41.98861
346.3466	44.97655
346.5144	47.21743
346.6822	48.95692
346.85	52.05712
347.0178	49.12269
347.1856	47.55594
347.3534	43.50929
347.5211	46.18992
347.6889	47.34867
347.8567	49.07714
348.0244	51.32227
348.1922	45.2529
348.3599	45.51164
348.5277	45.48494
348.6954	48.94028
348.8632	46.05964
349.0309	41.79554
349.1986	46.7236
349.3663	45.6384
349.5341	49.55321
349.7018	56.16806
349.8695	58.71077
350.0372	55.17515
350.2049	58.62511
350.3726	57.69439
350.5403	55.70228
350.7079	53.6731
350.8756	51.56152
351.0433	55.14511
351.211	57.08816
351.3786	54.46685
351.5463	55.93974
351.714	58.46496
351.8816	55.28343
352.0493	55.80577
352.2169	50.56195
352.3846	49.19741
352.5522	48.35801
352.7198	51.59615
352.8875	62.55494
353.0551	64.45817
353.2227	59.13371
353.3903	58.53461
353.5579	59.39402
353.7255	59.60281
353.8931	62.95649
354.0607	67.51148
354.2283	66.12564
354.3958	64.25418
354.5634	65.25773
354.731	72.6805
354.8986	71.24751
355.0661	65.72318
355.2337	65.21953
355.4012	61.0187
355.5688	60.78807
355.7363	59.94387
355.9039	65.21843
356.0714	63.80773
356.239	59.29304
356.4065	57.96086
356.574	53.18033
356.7415	51.54664
356.909	50.39598
357.0765	52.33287
357.244	55.29005
357.4115	56.03416
357.579	58.94401
357.7465	53.22356
357.914	51.80846
358.0815	52.92267
358.249	45.26414
358.4164	43.83391
358.5839	42.99598
358.7513	47.90516
358.9188	53.80453
359.0862	59.43914
359.2537	63.93346
359.4211	64.96562
359.5886	69.4716
359.756	76.7291
359.9234	76.78349
360.0909	72.5052
360.2583	69.65382
360.4257	64.27649
360.5931	58.67312
360.7605	63.14489
360.9279	60.72813
361.0953	62.63806
361.2627	64.75932
361.4301	68.93903
361.5974	69.77631
361.7648	68.72598
361.9322	58.69197
362.0995	61.95868
362.2669	69.05653
362.4343	75.20004
362.6016	80.07745
362.769	77.6322
362.9363	75.05908
363.1036	66.62778
363.271	65.0655
363.4383	70.31531
363.6056	74.93638
363.7729	71.01107
363.9402	72.98124
364.1075	77.21574
364.2748	74.53506
364.4421	70.46988
364.6094	69.52369
364.7767	70.56995
364.944	74.00901
365.1113	80.57772
365.2786	82.13435
365.4458	83.00533
365.6131	88.35655
365.7803	87.50607
365.9476	89.81561
366.1148	90.98682
366.2821	88.36033
366.4493	86.90192
366.6166	86.46535
366.7838	84.77679
366.951	84.15298
367.1182	81.85065
367.2855	85.09733
367.4527	83.10826
367.6199	86.80325
367.7871	80.87844
367.9543	77.91083
368.1215	78.09324
368.2886	80.48465
368.4558	78.92739
368.623	77.72063
368.7902	81.62752
368.9573	85.8746
369.1245	91.40531
369.2917	97.70648
369.4588	90.14149
369.6259	91.23848
369.7931	95.90831
369.9602	104.9148
370.1274	97.79911
370.2945	88.09959
370.4616	84.56948
370.6287	83.49917
370.7958	84.04563
370.963	93.05448
371.1301	93.8861
371.2971	103.2493
371.4643	103.1716
371.6313	103.7467
371.7984	98.92516
371.9655	82.72972
372.1326	78.01651
372.2997	84.77258
372.4667	91.0881
372.6338	95.31529
372.8008	97.16252
372.9679	93.28272
373.1349	86.83015
373.3019	79.11584
373.469	68.91093
373.636	72.65147
373.803	80.63264
373.9701	92.21316
374.1371	99.2764
374.3041	92.34032
374.4711	82.31049
374.6381	74.21766
374.8051	73.48423
374.9721	80.05903
375.1391	89.6974
375.3061	108.2682
375.473	110.4039
375.64	106.4467
375.8069	91.51852
375.9739	94.58543
376.1409	98.91276
376.3078	104.4094
376.4748	106.8013
376.6417	103.1568
376.8087	105.9274
376.9756	108.4706
377.1425	114.459
377.3094	118.2925
377.4763	127.8308
377.6432	126.8407
377.8102	126.2244
377.9771	126.184
378.144	129.6127
378.3109	124.8587
378.4777	123.378
378.6446	117.2865
378.8115	107.8179
378.9784	102.5118
379.1452	105.8239
379.3121	108.0328
379.4789	103.8555
379.6458	98.41864
379.8127	102.2521
379.9795	102.5571
380.1463	115.9344
380.3131	123.9729
380.48	121.8179
380.6468	128.0103
380.8136	128.2957
380.9804	126.4166
381.1472	125.5338
381.314	111.6716
381.4808	106.4615
381.6476	103.4086
381.8144	99.80283
381.9812	98.96214
382.148	101.2896
382.3147	96.29727
382.4815	87.64417
382.6483	82.71912
382.815	84.44337
382.9818	86.53506
383.1485	81.25435
383.3153	82.16492
383.482	76.70072
383.6487	81.24767
383.8155	84.20406
383.9822	89.42957
384.1489	102.8124
384.3156	114.1087
384.4823	125.1964
384.649	127.9352
384.8157	125.4615
384.9824	123.7567
385.1491	125.694
385.3158	123.2929
385.4825	126.2521
385.6491	117.6048
385.8158	100.8672
385.9825	102.3977
386.1491	111.0354
386.3157	123.723
386.4824	133.9288
386.649	128.467
386.8157	118.1786
386.9823	109.4003
387.1489	112.3901
387.3156	121.676
387.4821	134.5448
387.6488	133.3413
387.8154	118.2707
387.982	118.2723
388.1486	117.8134
388.3152	117.0166
388.4818	112.7273
388.6483	121.3615
388.8149	122.5733
388.9815	126.2602
389.148	138.9924
389.3146	147.7129
389.4811	150.0419
389.6477	156.0052
389.8142	147.7166
389.9808	145.4297
390.1473	154.1815
390.3138	145.1073
390.4804	137.594
390.6469	146.2158
390.8134	156.9664
390.9799	160.9189
391.1464	167.1966
391.3129	166.5483
391.4794	170.9698
391.6459	166.3222
391.8124	154.4133
391.9789	142.2758
392.1453	144.1573
392.3118	145.3322
392.4782	135.1674
392.6447	122.7729
392.8112	104.6438
392.9776	90.7534
393.144	75.1851
393.3105	64.44792
393.4769	74.52063
393.6433	83.82388
393.8098	98.59291
393.9762	116.9034
394.1426	129.5927
394.309	132.6342
394.4754	144.5985
394.6418	167.7903
394.8082	172.0059
394.9746	171.3915
395.141	181.2893
395.3073	182.2347
395.4737	182.1922
395.64	182.2788
395.8064	174.4027
395.9728	165.3742
396.1391	144.133
396.3055	125.4862
396.4718	106.2122
396.6381	91.89234
396.8045	83.78448
396.9708	86.75793
397.1371	101.321
397.3034	121.3629
397.4697	146.5849
397.636	169.7912
397.8023	190.5753
397.9686	197.7338
398.1349	204.1795
398.3012	211.5888
398.4675	205.2948
398.6337	215.296
398.8	216.4544
398.9662	222.1116
399.1325	232.4191
399.2988	234.3895
399.465	228.5988
399.6313	226.1962
399.7975	233.9078
399.9637	238.5135
400.1299	246.5347
400.2961	246.1214
400.4624	240.3579
400.6286	228.2412
400.7948	235.8261
400.961	242.9211
401.1272	250.7325
401.2934	251.403
401.4595	251.0285
401.6257	250.2787
401.7919	245.2531
401.9581	256.4071
402.1242	259.1179
402.2904	258.2165
402.4565	253.2045
402.6227	256.5281
402.7888	265.8777
402.955	256.3012
403.1211	237.4479
403.2872	225.7388
403.4533	239.1908
403.6194	255.3306
403.7856	267.2598
403.9517	268.7297
404.1177	263.6701
404.2838	252.7332
404.4499	235.657
404.616	230.3676
404.7821	234.6353
404.9482	257.5432
405.1142	270.4139
405.2803	266.8882
405.4464	250.4846
405.6124	247.7892
405.7784	254.7066
405.9445	258.3893
406.1105	256.4748
406.2766	247.313
406.4426	247.7393
406.6086	250.3242
406.7746	265.1561
406.9406	270.8603
407.1066	276.9299
407.2726	265.5413
407.4386	266.0138
407.6046	264.9951
407.7706	258.8311
407.9366	266.7933
408.1025	288.1902
408.2685	305.9573
408.4344	302.1717
408.6004	303.0665
408.7664	307.9041
408.9323	316.222
409.0983	315.1371
409.2642	300.8704
409.4301	290.1841
409.596	283.5471
409.762	274.1681
409.9279	260.9956
410.0938	244.5656
410.2597	241.9808
410.4256	258.6635
410.5915	280.5659
410.7574	292.8922
410.9232	299.3139
411.0891	298.4181
411.255	304.7601
411.4209	325.0627
411.5867	323.118
411.7526	320.7256
411.9184	327.6271
412.0843	317.9776
412.2501	323.7682
412.4159	324.9704
412.5818	317.938
412.7476	318.4781
412.9134	303.6002
413.0792	304.1023
413.245	299.8726
413.4108	301.98
413.5766	314.4711
413.7424	326.438
413.9082	345.8129
414.074	334.3649
414.2397	315.3892
414.4055	307.058
414.5713	311.7559
414.737	320.1
414.9028	324.1878
415.0685	319.2809
415.2343	321.3916
415.4	316.9878
415.5658	313.912
415.7315	318.1357
415.8972	336.0144
416.0629	343.1082
416.2286	345.0252
416.3943	352.6428
416.56	353.6805
416.7257	341.7922
416.8914	337.4007
417.0571	324.4065
417.2228	320.4511
417.3884	313.382
417.5541	313.1376
417.7198	324.999
417.8854	327.0586
418.0511	330.3018
418.2167	332.7453
418.3824	323.7079
418.548	326.2018
418.7136	327.7915
418.8792	329.4353
419.0449	336.3929
419.2105	353.9452
419.3761	358.1228
419.5417	343.9103
419.7073	323.9088
419.8729	315.1744
420.0385	314.5077
420.204	327.9464
420.3696	350.5971
420.5352	365.2201
420.7007	385.7205
420.8663	384.4581
421.0319	381.7374
421.1974	377.3967
421.3629	388.093
421.5285	370.981
421.694	366.5742
421.8595	383.3568
422.0251	397.5948
422.1906	385.7814
422.3561	358.9979
422.5216	322.6437
422.6871	305.5747
422.8526	329.8558
423.0181	376.022
423.1835	390.7137
423.349	377.2773
423.5145	360.149
423.68	352.4454
423.8454	350.7279
424.0109	372.8106
424.1763	385.605
424.3418	395.9449
424.5072	393.6094
424.6726	390.6453
424.838	376.3792
425.0035	355.844
425.1689	365.8141
425.3343	377.8093
425.4997	386.3459
425.6651	385.37
425.8305	365.384
425.9959	356.6605
426.1613	361.2847
426.3267	386.3687
426.492	403.9779
426.6574	399.5421
426.8228	389.2853
426.9881	360.5784
427.1534	336.4834
427.3188	328.1617
427.4841	347.0576
427.6495	370.5376
427.8148	385.4862
427.9801	385.5028
428.1454	378.7196
428.3107	378.0979
428.476	376.603
428.6414	364.0813
428.8066	349.3098
428.9719	345.4327
429.1372	355.5981
429.3025	361.9391
429.4678	358.1569
429.633	342.7483
429.7983	315.1836
429.9636	287.3786
430.1288	274.4083
430.294	279.3537
430.4593	291.9677
430.6245	283.63
430.7897	264.9699
430.955	266.0218
431.1202	289.9045
431.2854	331.3473
431.4506	372.1046
431.6158	419.1894
431.781	458.2571
431.9462	457.7503
432.1114	431.8474
432.2766	387.0479
432.4417	348.0023
432.6069	341.8552
432.772	379.2291
432.9372	427.2492
433.1024	445.6982
433.2675	455.472
433.4326	445.9118
433.5977	427.6378
433.7629	390.9479
433.928	354.5579
434.0931	345.1797
434.2582	362.265
434.4233	407.7301
434.5884	438.6591
434.7535	449.8094
434.9186	459.4209
435.0837	437.2198
435.2488	413.6919
435.4138	421.1779
435.5789	446.1674
435.744	462.6973
435.909	470.3801
436.0741	475.195
436.2391	491.0836
436.4042	501.3098
436.5692	492.6111
436.7342	485.701
436.8992	480.4207
437.0643	466.4674
437.2293	461.9189
437.3943	452.0569
437.5593	450.2461
437.7243	453.6371
437.8893	463.7087
438.0542	468.8384
438.2192	416.3358
438.3842	386.8996
438.5491	387.8048
438.7141	424.2177
438.8791	437.448
439.044	451.2585
439.209	468.4453
439.3739	465.7226
439.5388	471.0012
439.7037	478.0358
439.8687	490.1953
440.0336	489.8472
440.1985	475.1763
440.3634	452.0638
440.5283	442.8993
440.6932	453.0319
440.8581	473.1752
441.0229	503.0353
441.1878	523.4862
441.3527	520.8562
441.5175	496.1783
441.6824	500.4046
441.8472	521.6403
442.0121	525.2876
442.1769	531.809
442.3418	522.6713
442.5066	519.9496
442.6714	527.4713
442.8362	533.0276
443.001	528.8326
443.1659	523.6758
443.3307	502.3001
443.4955	508.2066
443.6602	519.4923
443.825	531.8306
443.9898	539.6839
444.1546	538.4738
444.3193	531.6437
444.4841	536.2873
444.6488	543.6317
444.8136	546.3383
444.9783	544.3542
445.1431	535.9352
445.3078	529.4777
445.4725	510.7698
445.6372	496.89
445.802	494.9988
445.9667	501.7184
446.1314	499.063
446.2961	525.5548
446.4608	538.046
446.6255	546.3051
446.7901	544.145
446.9548	551.8458
447.1195	562.5562
447.2841	574.4401
447.4488	592.9954
447.6134	590.6337
447.7781	593.9384
447.9427	569.8341
448.1074	553.1175
448.272	551.6113
448.4366	577.1345
448.6012	601.3893
448.7658	593.9568
448.9305	579.4588
449.095	572.9291
449.2596	577.2261
449.4242	576.1238
449.5888	571.1077
449.7534	590.78
449.9179	616.5584
450.0825	613.8904
450.2471	619.5851
450.4116	636.2676
450.5762	644.7513
450.7407	642.5766
450.9052	646.6164
451.0698	637.812
451.2343	628.2114
451.3988	622.5236
451.5633	627.4636
451.7278	627.3531
451.8923	626.7423
452.0568	623.3207
452.2213	626.2894
452.3858	619.1694
452.5503	587.4543
452.7148	563.1599
452.8792	551.1593
453.0437	566.7745
453.2081	575.3414
453.3726	572.3459
453.537	582.0639
453.7015	601.6025
453.8659	620.7711
454.0303	626.6185
454.1947	624.5406
454.3592	624.5208
454.5236	625.1041
454.688	608.7292
454.8524	600.6238
455.0168	591.3936
455.1811	594.5355
455.3455	598.5511
455.5099	603.2972
455.6743	616.6111
455.8386	640.6725
456.003	652.0723
456.1673	646.3428
456.3317	633.4471
456.496	621.2387
456.6603	621.3331
456.8246	627.4257
456.989	638.7426
457.1533	629.4366
457.3176	632.0499
457.4819	641.9147
457.6462	652.7354
457.8105	646.5389
457.9748	624.1046
458.1391	607.9965
458.3033	604.6202
458.4676	613.0731
458.6319	613.3493
458.7961	614.9922
458.9604	633.5424
459.1246	641.6646
459.2888	627.1601
459.4531	626.0618
459.6173	622.7003
459.7815	630.4733
459.9457	626.9407
460.11	632.8301
460.2741	629.6069
460.4384	629.2418
460.6025	635.9865
460.7667	647.3179
460.9309	662.1874
461.0951	655.2612
461.2592	647.927
461.4234	647.8078
461.5876	651.6895
461.7517	658.4378
461.9159	660.4656
462.08	656.9106
462.2441	658.6313
462.4082	660.2565
462.5724	662.9099
462.7365	668.2444
462.9006	672.0793
463.0647	667.7503
463.2288	672.3107
463.3929	678.188
463.557	653.3437
463.721	642.3591
463.8851	645.0581
464.0492	648.8125
464.2132	655.8698
464.3773	656.3979
464.5414	643.6383
464.7054	628.3845
464.8694	628.8697
465.0334	645.3531
465.1975	659.936
465.3615	666.0856
465.5255	664.2707
465.6895	660.2894
465.8535	674.5978
466.0175	692.837
466.1815	682.762
466.3455	662.1419
466.5095	649.7447
466.6734	625.6063
466.8374	621.095
467.0014	641.809
467.1653	669.9539
467.3293	667.9836
467.4932	672.3594
467.6571	689.1124
467.8211	677.8185
467.985	659.997
468.1489	664.2025
468.3128	674.1834
468.4767	689.0803
468.6406	688.5656
468.8045	691.7902
468.9684	695.4316
469.1323	685.0003
469.2962	678.2204
469.46	687.2983
469.6239	691.9632
469.7878	689.0876
469.9516	678.1691
470.1154	663.4905
470.2793	649.449
470.4431	651.1965
470.607	657.191
470.7708	653.2142
470.9346	667.442
471.0984	681.4942
471.2622	676.3478
471.426	685.6377
471.5898	686.5869
471.7536	698.8936
471.9174	717.0925
472.0811	723.1273
472.2449	726.8598
472.4087	726.6569
472.5724	709.4172
472.7362	689.1673
472.8999	678.6688
473.0637	669.1473
473.2274	686.0017
473.3911	697.5704
473.5548	704.1639
473.7185	692.9587
473.8822	684.4088
474.0459	695.8834
474.2096	704.0472
474.3733	702.3763
474.537	714.8339
474.7007	720.8123
474.8643	715.9653
475.028	720.0831
475.1917	707.9691
475.3553	688.5561
475.519	689.6887
475.6826	686.3109
475.8463	699.3345
476.0099	704.0249
476.1735	685.5854
476.3371	674.7935
476.5007	664.5788
476.6643	664.7867
476.8279	690.8595
476.9915	712.4231
477.1551	702.1519
477.3187	699.6943
477.4823	714.8268
477.6458	721.1454
477.8094	721.1062
477.9729	714.0611
478.1365	707.0181
478.3	700.4236
478.4636	698.252
478.6271	692.9193
478.7906	686.4719
478.9541	685.6208
479.1176	699.0688
479.2812	712.0693
479.4447	722.5153
479.6082	718.0158
479.7716	722.4026
479.9351	709.3098
480.0986	704.6619
480.2621	710.2874
480.4255	713.4172
480.589	706.0349
480.7524	698.4727
480.9159	704.6505
481.0793	708.7343
481.2428	711.6916
481.4062	719.0619
481.5696	727.5345
481.733	715.4109
481.8964	732.9308
482.0598	730.6116
482.2232	713.3428
482.3866	709.0506
482.55	703.1937
482.7134	704.0946
482.8768	709.5851
483.0401	710.5722
483.2035	715.5303
483.3668	721.1321
483.5302	723.614
483.6935	724.6115
483.8568	702.834
484.0202	698.7764
484.1835	696.9958
484.3468	696.672
484.5101	708.0987
484.6734	713.8154
484.8367	718.7712
485	713.8549
485.1633	706.9205
485.3266	699.7622
485.4899	675.7
485.6531	650.9187
485.8164	623.8747
485.9796	572.1469
486.1429	527.3193
486.3061	536.2836
486.4694	591.6349
486.6326	641.7211
486.7958	662.4998
486.959	662.4172
487.1223	644.994
487.2855	651.394
487.4486	658.8184
487.6118	679.0338
487.775	702.6699
487.9382	710.7491
488.1014	704.8443
488.2646	707.7437
488.4277	698.5295
488.5909	700.1619
488.754	688.9111
488.9171	670.3457
489.0803	649.9539
489.2434	658.157
489.4066	709.8494
489.5697	751.6406
489.7328	758.8583
489.8959	737.0337
490.059	727.98
490.2221	725.5534
490.3852	730.3208
490.5482	732.2822
490.7113	736.8516
490.8744	711.957
491.0374	706.6094
491.2005	699.5195
491.3636	716.95
491.5266	720.3466
491.6896	703.9108
491.8527	667.8364
492.0157	641.1777
492.1787	639.7709
492.3417	658.1628
492.5047	692.4389
492.6677	708.1003
492.8307	729.8011
492.9937	736.3796
493.1567	725.1392
493.3196	715.1088
493.4826	700.3773
493.6456	701.3366
493.8085	689.7295
493.9715	689.297
494.1344	709.5784
494.2974	732.0789
494.4603	736.6709
494.6232	733.3203
494.7861	730.6469
494.949	739.5911
495.1119	743.537
495.2748	744.7607
495.4377	729.3952
495.6006	706.7643
495.7635	681.489
495.9264	695.2461
496.0892	729.8489
496.2521	748.3752
496.4149	752.5209
496.5778	737.1699
496.7407	717.84
496.9035	729.3702
497.0663	733.5692
497.2291	750.5361
497.3919	753.3428
497.5547	750.3596
497.7176	736.6623
497.8804	726.0236
498.0432	718.3474
498.2059	684.4182
498.3687	671.275
498.5315	672.9293
498.6942	707.6606
498.857	734.682
499.0198	730.71
499.1825	723.4045
499.3452	736.0538
499.508	750.7845
499.6707	753.6909
499.8334	744.2427
499.9962	727.9208
500.1589	713.268
500.3216	705.3734
500.4843	688.807
500.6469	692.4555
500.8096	702.7729
500.9723	715.2834
501.135	719.7473
501.2976	700.8278
501.4603	693.5472
501.623	686.5466
501.7856	693.2377
501.9482	707.0166
502.1109	716.0364
502.2735	718.6841
502.4361	719.2537
502.5987	729.0063
502.7614	725.205
502.924	721.8931
503.0865	742.2064
503.2491	767.0724
503.4117	755.1438
503.5743	744.4262
503.7368	722.6006
503.8994	707.8432
504.062	689.5719
504.2245	690.3816
504.3871	720.6974
504.5496	756.1675
504.7121	754.3784
504.8746	753.5095
505.0372	740.8877
505.1997	727.215
505.3622	755.9858
505.5247	768.2689
505.6872	780.3751
505.8497	789.3287
506.0121	786.0481
506.1746	790.4355
506.3371	781.9131
506.4995	758.1694
506.662	748.9698
506.8244	751.7854
506.9869	750.9136
507.1493	744.6909
507.3117	750.9989
507.4742	749.1204
507.6366	756.0447
507.799	742.1579
507.9614	709.5394
508.1238	707.8734
508.2862	710.6602
508.4485	745.0598
508.6109	755.5055
508.7733	771.848
508.9357	774.0977
509.098	773.2775
509.2604	777.5328
509.4227	770.5147
509.5851	764.2083
509.7474	742.495
509.9097	716.3829
510.072	729.1643
510.2343	744.0969
510.3966	754.8366
510.5589	743.3917
510.7212	730.2397
510.8835	715.3435
511.0458	730.3319
511.2081	749.5003
511.3703	763.2495
511.5326	756.6708
511.6949	765.022
511.8571	756.3812
512.0193	763.3619
512.1816	752.5281
512.3438	727.7562
512.506	708.7897
512.6682	704.2919
512.8304	716.5043
512.9926	722.9262
513.1548	724.2189
513.317	719.2903
513.4792	722.0048
513.6414	713.9172
513.8035	699.5232
513.9657	690.0825
514.1279	688.5519
514.29	693.9581
514.4521	688.9809
514.6143	696.0996
514.7764	705.6863
514.9385	716.7894
515.1006	705.3078
515.2628	703.3693
515.4249	712.2133
515.587	719.4099
515.7491	719.3504
515.9111	733.7812
516.0732	722.062
516.2353	704.0002
