SPECTRUM DATA FILE
SpectrumCount:	1
PixelCount:	3648
UserName:	ToughBook User
SampleName:	
LightSource:	
Comments:	
DeviceName:	Qwave
DeviceManufacturer:	Broadcom
DeviceSerialNo:	11311

Name:	last spectrum
Date:	2024-05-02T14:33:50.3356591+02:00
ExposureTime:	0.02
TemporalAvg:	1
IntensityUnit:	normalizedCounts
CCDLoadLevel:	0.163234
Temperature:	31.16721
DiagramColor:	200
ProcessingSteps:	335

Wavelength [nm]	Intensity1
334.421	37.04488
334.5891	34.11585
334.7573	35.57692
334.9254	36.8711
335.0935	40.03138
335.2616	37.53468
335.4297	41.0563
335.5978	39.14115
335.7659	36.54075
335.934	33.24929
336.1021	34.40034
336.2701	33.75937
336.4382	38.07563
336.6063	36.22271
336.7744	37.99585
336.9424	33.8662
337.1105	32.38905
337.2785	35.58512
337.4466	39.16331
337.6146	36.23119
337.7827	36.64221
337.9507	31.14067
338.1187	30.40321
338.2867	41.39469
338.4548	35.63793
338.6228	41.67428
338.7908	39.08641
338.9588	40.09565
339.1268	36.62339
339.2948	36.02276
339.4628	39.01088
339.6308	38.20449
339.7988	40.72079
339.9667	46.26023
340.1347	42.25167
340.3027	39.46562
340.4707	39.27139
340.6386	38.98048
340.8066	41.89456
340.9745	36.79889
341.1425	38.88645
341.3104	41.65614
341.4784	40.81137
341.6463	38.62187
341.8142	44.40881
341.9821	42.36589
342.1501	42.26134
342.318	43.76088
342.4859	40.98702
342.6538	42.18888
342.8217	47.36023
342.9896	49.07392
343.1575	45.97923
343.3254	41.25928
343.4933	49.28882
343.6612	47.43481
343.829	41.91049
343.9969	33.97803
344.1648	36.10124
344.3326	34.33515
344.5005	41.28595
344.6683	45.81247
344.8362	43.20837
345.004	43.81381
345.1719	49.39542
345.3397	47.62209
345.5075	46.65785
345.6754	46.53044
345.8432	45.09271
346.011	40.88293
346.1788	41.67167
346.3466	47.24465
346.5144	47.82433
346.6822	47.04157
346.85	45.52083
347.0178	42.71732
347.1856	48.93322
347.3534	43.8503
347.5211	39.33561
347.6889	38.73223
347.8567	46.16121
348.0244	50.11044
348.1922	45.42621
348.3599	43.36762
348.5277	41.36135
348.6954	45.32692
348.8632	43.29423
349.0309	42.93187
349.1986	44.44033
349.3663	48.87426
349.5341	44.88522
349.7018	47.99185
349.8695	52.88897
350.0372	58.1722
350.2049	50.86433
350.3726	48.56926
350.5403	53.35771
350.7079	51.32048
350.8756	52.25821
351.0433	51.94027
351.211	50.12203
351.3786	45.03459
351.5463	46.49815
351.714	52.83147
351.8816	55.88885
352.0493	54.02733
352.2169	44.7476
352.3846	44.60843
352.5522	50.21968
352.7198	50.88596
352.8875	55.16196
353.0551	54.6906
353.2227	59.43763
353.3903	52.79381
353.5579	54.47198
353.7255	58.91268
353.8931	60.22706
354.0607	60.95619
354.2283	59.52857
354.3958	58.90185
354.5634	57.43058
354.731	57.26764
354.8986	62.66816
355.0661	58.89584
355.2337	58.23016
355.4012	55.32012
355.5688	57.5842
355.7363	57.28192
355.9039	56.63593
356.0714	55.95904
356.239	54.87461
356.4065	57.98729
356.574	48.95018
356.7415	50.10165
356.909	45.89478
357.0765	47.43538
357.244	50.43531
357.4115	55.69587
357.579	54.77235
357.7465	51.85884
357.914	50.70928
358.0815	45.26789
358.249	40.40308
358.4164	44.08308
358.5839	44.65104
358.7513	48.42277
358.9188	53.80307
359.0862	55.99044
359.2537	62.12675
359.4211	67.67772
359.5886	65.18331
359.756	63.57438
359.9234	68.17754
360.0909	67.1936
360.2583	64.45027
360.4257	61.55704
360.5931	58.6757
360.7605	53.41073
360.9279	55.99908
361.0953	58.77468
361.2627	58.0581
361.4301	62.53477
361.5974	63.47722
361.7648	61.72223
361.9322	57.60073
362.0995	60.3985
362.2669	69.8224
362.4343	68.859
362.6016	74.31726
362.769	78.98755
362.9363	73.88161
363.1036	62.18917
363.271	55.44884
363.4383	57.63681
363.6056	68.49685
363.7729	71.02091
363.9402	67.68371
364.1075	67.67163
364.2748	68.89753
364.4421	70.16739
364.6094	62.9085
364.7767	58.85478
364.944	58.62779
365.1113	73.80682
365.2786	80.81557
365.4458	78.44375
365.6131	82.6359
365.7803	83.47012
365.9476	81.88301
366.1148	80.97759
366.2821	81.09154
366.4493	80.92599
366.6166	78.47397
366.7838	79.61675
366.951	81.32264
367.1182	78.97063
367.2855	80.05232
367.4527	81.45597
367.6199	75.91788
367.7871	69.99414
367.9543	75.32166
368.1215	78.20543
368.2886	81.93334
368.4558	79.49287
368.623	75.46587
368.7902	81.89668
368.9573	83.09791
369.1245	83.00623
369.2917	83.51614
369.4588	87.81876
369.6259	88.37436
369.7931	94.36045
369.9602	91.8848
370.1274	90.24527
370.2945	84.89285
370.4616	79.28203
370.6287	73.91676
370.7958	81.37453
370.963	79.591
371.1301	88.36221
371.2971	98.5314
371.4643	96.31091
371.6313	97.87481
371.7984	92.56926
371.9655	79.37244
372.1326	76.7476
372.2997	80.45537
372.4667	87.95772
372.6338	92.38834
372.8008	85.02635
372.9679	83.15119
373.1349	84.33048
373.3019	69.54166
373.469	63.6027
373.636	66.40553
373.803	74.82393
373.9701	85.07005
374.1371	90.43793
374.3041	91.82943
374.4711	82.01872
374.6381	71.50032
374.8051	73.91601
374.9721	75.72739
375.1391	85.88546
375.3061	89.82598
375.473	98.5191
375.64	97.53946
375.8069	93.05094
375.9739	94.86063
376.1409	95.79668
376.3078	87.33381
376.4748	89.39539
376.6417	87.4314
376.8087	93.40482
376.9756	97.51649
377.1425	101.6498
377.3094	106.2064
377.4763	108.874
377.6432	115.6237
377.8102	114.7801
377.9771	118.8198
378.144	117.947
378.3109	121.1859
378.4777	121.4708
378.6446	114.3682
378.8115	100.3268
378.9784	101.1054
379.1452	97.28355
379.3121	95.37164
379.4789	96.59601
379.6458	93.89709
379.8127	95.23001
379.9795	97.02523
380.1463	106.9076
380.3131	111.5401
380.48	113.3436
380.6468	115.916
380.8136	118.3812
380.9804	117.4903
381.1472	113.0355
381.314	108.2167
381.4808	100.5839
381.6476	94.83705
381.8144	94.06691
381.9812	94.17303
382.148	88.7134
382.3147	83.93245
382.4815	78.55984
382.6483	78.45871
382.815	73.25982
382.9818	79.69285
383.1485	80.22625
383.3153	77.55047
383.482	76.17905
383.6487	77.86527
383.8155	82.62479
383.9822	86.16905
384.1489	92.45611
384.3156	106.9593
384.4823	117.2662
384.649	118.6538
384.8157	113.6562
384.9824	117.6359
385.1491	116.3172
385.3158	118.939
385.4825	113.6448
385.6491	103.7133
385.8158	100.2366
385.9825	96.44522
386.1491	111.2126
386.3157	118.6112
386.4824	117.0593
386.649	124.3604
386.8157	115.4
386.9823	111.9079
387.1489	106.827
387.3156	112.0106
387.4821	120.0085
387.6488	122.5952
387.8154	117.8961
387.982	116.5205
388.1486	117.7297
388.3152	110.7868
388.4818	109.3688
388.6483	112.0834
388.8149	113.633
388.9815	120.6964
389.148	133.4976
389.3146	139.9451
389.4811	142.0337
389.6477	152.3536
389.8142	145.269
389.9808	142.8797
390.1473	133.4811
390.3138	130.4204
390.4804	131.4435
390.6469	138.7506
390.8134	152.1153
390.9799	158.5154
391.1464	164.7099
391.3129	159.4919
391.4794	154.3438
391.6459	148.5748
391.8124	143.1884
391.9789	142.8262
392.1453	132.1273
392.3118	134.4747
392.4782	131.682
392.6447	120.5156
392.8112	101.6115
392.9776	89.64454
393.144	73.04385
393.3105	62.82954
393.4769	68.47843
393.6433	82.51736
393.8098	93.7193
393.9762	108.7536
394.1426	117.4555
394.309	128.2738
394.4754	135.2432
394.6418	146.7376
394.8082	159.8601
394.9746	172.3657
395.141	169.7047
395.3073	173.0948
395.4737	171.0985
395.64	168.1197
395.8064	166.289
395.9728	158.7679
396.1391	139.8603
396.3055	122.2613
396.4718	106.9142
396.6381	85.60484
396.8045	78.30739
396.9708	81.77441
397.1371	88.28765
397.3034	114.3463
397.4697	130.2456
397.636	154.0794
397.8023	173.1863
397.9686	187.9727
398.1349	196.5039
398.3012	195.4383
398.4675	190.0635
398.6337	198.0952
398.8	206.0238
398.9662	211.4683
399.1325	214.4057
399.2988	212.8083
399.465	214.0164
399.6313	211.766
399.7975	216.46
399.9637	226.393
400.1299	226.8302
400.2961	222.2091
400.4624	211.6167
400.6286	213.4656
400.7948	215.6492
400.961	230.3772
401.1272	236.8264
401.2934	240.5542
401.4595	245.322
401.6257	235.9624
401.7919	236.3515
401.9581	236.6515
402.1242	238.3353
402.2904	240.0794
402.4565	231.4435
402.6227	236.9672
402.7888	246.082
402.955	234.7478
403.1211	223.4031
403.2872	215.9496
403.4533	212.7091
403.6194	239.3222
403.7856	251.4294
403.9517	257.2849
404.1177	249.2416
404.2838	237.1581
404.4499	213.1784
404.616	209.6895
404.7821	223.8715
404.9482	244.4491
405.1142	258.3311
405.2803	254.0467
405.4464	247.3734
405.6124	232.327
405.7784	231.7413
405.9445	238.1475
406.1105	238.1408
406.2766	227.936
406.4426	221.3847
406.6086	234.4305
406.7746	250.9402
406.9406	258.1413
407.1066	250.7675
407.2726	251.9338
407.4386	245.2212
407.6046	247.5638
407.7706	249.2143
407.9366	255.8392
408.1025	266.5099
408.2685	277.9256
408.4344	273.5763
408.6004	272.4659
408.7664	285.1752
408.9323	293.1131
409.0983	298.543
409.2642	293.0362
409.4301	287.338
409.596	264.5294
409.762	257.0354
409.9279	243.8329
410.0938	227.2063
410.2597	226.3251
410.4256	235.8883
410.5915	268.232
410.7574	276.8237
410.9232	278.1736
411.0891	287.7733
411.255	298.7585
411.4209	310.808
411.5867	310.0478
411.7526	298.0648
411.9184	296.5095
412.0843	289.1447
412.2501	295.322
412.4159	307.6131
412.5818	302.5888
412.7476	299.5571
412.9134	292.5588
413.0792	280.2183
413.245	271.0821
413.4108	278.562
413.5766	292.7457
413.7424	308.3031
413.9082	323.4271
414.074	318.9915
414.2397	290.4132
414.4055	293.9301
414.5713	297.3969
414.737	304.2966
414.9028	299.6387
415.0685	304.3202
415.2343	294.4955
415.4	288.2122
415.5658	290.065
415.7315	296.066
415.8972	308.42
416.0629	314.1753
416.2286	322.647
416.3943	332.1366
416.56	323.0755
416.7257	315.0578
416.8914	313.9032
417.0571	307.0983
417.2228	304.636
417.3884	294.313
417.5541	290.0434
417.7198	295.8401
417.8854	312.837
418.0511	314.9441
418.2167	306.2164
418.3824	314.9056
418.548	312.7926
418.7136	306.8125
418.8792	314.2122
419.0449	325.2531
419.2105	333.8525
419.3761	327.8589
419.5417	325.7499
419.7073	306.1405
419.8729	298.3616
420.0385	293.9012
420.204	309.3066
420.3696	329.8036
420.5352	340.1905
420.7007	349.8647
420.8663	359.9443
421.0319	373.419
421.1974	361.5022
421.3629	352.3403
421.5285	339.5393
421.694	341.552
421.8595	346.9015
422.0251	365.5977
422.1906	365.9974
422.3561	347.6313
422.5216	304.8935
422.6871	286.6258
422.8526	311.0304
423.0181	346.8225
423.1835	365.3954
423.349	359.9946
423.5145	343.8628
423.68	331.3233
423.8454	334.5329
424.0109	342.9125
424.1763	363.5559
424.3418	366.1592
424.5072	372.9434
424.6726	345.9313
424.838	338.7755
425.0035	331.6134
425.1689	345.455
425.3343	342.5025
425.4997	353.5875
425.6651	354.4907
425.8305	353.3855
425.9959	334.8176
426.1613	337.8195
426.3267	358.452
426.492	378.8725
426.6574	377.2076
426.8228	358.6836
426.9881	329.2514
427.1534	308.4384
427.3188	306.693
427.4841	320.046
427.6495	352.3048
427.8148	368.2993
427.9801	356.7303
428.1454	354.6223
428.3107	351.8914
428.476	350.1838
428.6414	334.973
428.8066	321.9627
428.9719	321.9539
429.1372	336.359
429.3025	343.3531
429.4678	356.5928
429.633	329.902
429.7983	303.9102
429.9636	271.402
430.1288	265.8882
430.294	258.6022
430.4593	263.895
430.6245	265.0148
430.7897	251.4977
430.955	256.9441
431.1202	268.1335
431.2854	296.2754
431.4506	350.4775
431.6158	390.1706
431.781	426.4719
431.9462	434.5919
432.1114	411.8776
432.2766	379.7228
432.4417	337.3729
432.6069	323.3652
432.772	364.0093
432.9372	396.4748
433.1024	419.4966
433.2675	432.7352
433.4326	427.8197
433.5977	409.7107
433.7629	372.0863
433.928	321.6168
434.0931	312.0622
434.2582	336.7879
434.4233	371.0569
434.5884	416.1588
434.7535	420.1887
434.9186	424.3911
435.0837	418.8253
435.2488	391.8713
435.4138	395.1267
435.5789	417.0255
435.744	426.0547
435.909	440.6067
436.0741	445.3801
436.2391	458.2217
436.4042	463.2731
436.5692	464.1494
436.7342	463.9222
436.8992	442.5777
437.0643	437.2552
437.2293	430.4459
437.3943	425.7145
437.5593	418.1867
437.7243	433.9998
437.8893	442.6534
438.0542	434.8235
438.2192	403.0978
438.3842	361.905
438.5491	362.6843
438.7141	400.3788
438.8791	419.7302
439.044	425.3884
439.209	431.9595
439.3739	437.9152
439.5388	453.7249
439.7037	455.085
439.8687	460.6439
440.0336	447.7327
440.1985	432.4213
440.3634	421.7242
440.5283	417.9562
440.6932	425.9059
440.8581	450.2633
441.0229	485.843
441.1878	490.5262
441.3527	482.4035
441.5175	472.8678
441.6824	468.5235
441.8472	485.3595
442.0121	502.7214
442.1769	505.8352
442.3418	494.6218
442.5066	489.0043
442.6714	506.8275
442.8362	494.2193
443.001	496.9723
443.1659	497.116
443.3307	486.1707
443.4955	478.0222
443.6602	484.866
443.825	502.8179
443.9898	516.7946
444.1546	500.8079
444.3193	484.4699
444.4841	495.925
444.6488	516.963
444.8136	529.8287
444.9783	527.7684
445.1431	519.6796
445.3078	495.9722
445.4725	477.0515
445.6372	468.8202
445.802	468.5833
445.9667	470.6893
446.1314	474.5321
446.2961	491.0683
446.4608	503.9308
446.6255	516.4128
446.7901	513.3545
446.9548	512.9811
447.1195	519.3922
447.2841	537.0756
447.4488	558.6553
447.6134	565.9346
447.7781	560.4097
447.9427	540.1945
448.1074	516.2008
448.272	515.3816
448.4366	540.8533
448.6012	557.333
448.7658	565.3293
448.9305	551.7014
449.095	545.3956
449.2596	550.8083
449.4242	547.0306
449.5888	548.0737
449.7534	551.0146
449.9179	570.7879
450.0825	575.0684
450.2471	582.8279
450.4116	602.3591
450.5762	614.5483
450.7407	616.9413
450.9052	615.824
451.0698	604.2473
451.2343	596.2309
451.3988	579.833
451.5633	589.2533
451.7278	582.7123
451.8923	582.7934
452.0568	598.1585
452.2213	594.4584
452.3858	577.7948
452.5503	559.0715
452.7148	530.6926
452.8792	518.5067
453.0437	527.5805
453.2081	546.2784
453.3726	546.5314
453.537	550.4191
453.7015	570.5775
453.8659	597.4461
454.0303	604.7215
454.1947	592.5309
454.3592	590.9072
454.5236	591.2014
454.688	584.9991
454.8524	568.582
455.0168	564.8894
455.1811	569.3259
455.3455	580.639
455.5099	568.1738
455.6743	582.1121
455.8386	610.3551
456.003	622.9512
456.1673	616.1973
456.3317	598.6674
456.496	591.5399
456.6603	588.5954
456.8246	607.058
456.989	616.2813
457.1533	604.1458
457.3176	609.4825
457.4819	617.355
457.6462	622.129
457.8105	615.8163
457.9748	598.5576
458.1391	579.0362
458.3033	567.5951
458.4676	573.1476
458.6319	584.1839
458.7961	590.5441
458.9604	606.7102
459.1246	608.8641
459.2888	600.8443
459.4531	585.9805
459.6173	581.6986
459.7815	578.3971
459.9457	590.5955
460.11	598.595
460.2741	592.3955
460.4384	600.9416
460.6025	604.6849
460.7667	608.6771
460.9309	625.3833
461.0951	623.1647
461.2592	613.2877
461.4234	610.5839
461.5876	615.0834
461.7517	607.5369
461.9159	615.0323
462.08	627.0373
462.2441	632.25
462.4082	625.6517
462.5724	626.3636
462.7365	627.3559
462.9006	638.7121
463.0647	632.2477
463.2288	634.47
463.3929	631.4423
463.557	624.0474
463.721	618.1251
463.8851	622.9145
464.0492	625.2643
464.2132	631.2094
464.3773	621.2396
464.5414	606.3898
464.7054	593.2665
464.8694	596.0272
465.0334	607.3424
465.1975	630.8696
465.3615	629.5037
465.5255	626.2673
465.6895	630.9836
465.8535	638.3214
466.0175	649.0527
466.1815	653.4443
466.3455	633.5162
466.5095	621.5101
466.6734	592.4457
466.8374	579.9299
467.0014	599.5368
467.1653	633.0272
467.3293	647.9338
467.4932	650.2126
467.6571	654.335
467.8211	644.4096
467.985	624.2504
468.1489	621.0278
468.3128	632.4017
468.4767	652.4388
468.6406	646.9846
468.8045	652.5085
468.9684	658.4518
469.1323	653.1053
469.2962	653.0148
469.46	656.3864
469.6239	665.2831
469.7878	658.6879
469.9516	640.4062
470.1154	616.5215
470.2793	600.8041
470.4431	612.8251
470.607	622.871
470.7708	635.7917
470.9346	637.4937
471.0984	637.2391
471.2622	645.9521
471.426	650.4558
471.5898	660.3116
471.7536	673.9368
471.9174	688.437
472.0811	688.7048
472.2449	682.9928
472.4087	686.0473
472.5724	683.944
472.7362	663.7076
472.8999	645.3253
473.0637	639.2607
473.2274	655.2255
473.3911	657.2678
473.5548	652.3724
473.7185	655.1392
473.8822	660.9016
474.0459	667.8013
474.2096	680.5007
474.3733	681.202
474.537	691.5167
474.7007	690.613
474.8643	685.808
475.028	686.106
475.1917	680.0508
475.3553	663.7181
475.519	646.6398
475.6826	657.9233
475.8463	673.9932
476.0099	676.5244
476.1735	660.1954
476.3371	645.4162
476.5007	633.3588
476.6643	651.9469
476.8279	654.1171
476.9915	659.1946
477.1551	656.8605
477.3187	671.5008
477.4823	679.5922
477.6458	681.6091
477.8094	690.4481
477.9729	678.2087
478.1365	683.6421
478.3	682.3846
478.4636	675.4377
478.6271	670.11
478.7906	670.2594
478.9541	670.7894
479.1176	660.2015
479.2812	673.6318
479.4447	692.7316
479.6082	693.4676
479.7716	693.0158
479.9351	676.9471
480.0986	664.6436
480.2621	671.1936
480.4255	685.1789
480.589	676.9301
480.7524	657.5936
480.9159	670.3902
481.0793	682.1685
481.2428	678.246
481.4062	685.5208
481.5696	692.3791
481.733	694.5057
481.8964	704.8776
482.0598	698.699
482.2232	682.7346
482.3866	672.58
482.55	670.0565
482.7134	684.0335
482.8768	687.0566
483.0401	675.403
483.2035	663.6837
483.3668	675.8737
483.5302	688.8692
483.6935	673.8928
483.8568	662.5979
484.0202	667.1273
484.1835	654.5089
484.3468	658.4783
484.5101	677.5501
484.6734	687.2431
484.8367	684.7402
485	678.0832
485.1633	684.2894
485.3266	675.0463
485.4899	649.5684
485.6531	614.8625
485.8164	584.4277
485.9796	535.9025
486.1429	496.4514
486.3061	504.9781
486.4694	555.9185
486.6326	611.0406
486.7958	627.6104
486.959	644.3768
487.1223	607.7449
487.2855	597.9842
487.4486	626.814
487.6118	647.4357
487.775	669.2769
487.9382	675.1491
488.1014	675.1907
488.2646	671.0178
488.4277	673.1991
488.5909	654.3225
488.754	648.9156
488.9171	636.7336
489.0803	623.0129
489.2434	642.3845
489.4066	669.021
489.5697	712.7352
489.7328	728.4564
489.8959	710.9168
490.059	700.0809
490.2221	684.9617
490.3852	689.335
490.5482	694.2421
490.7113	698.1564
490.8744	688.7259
491.0374	669.7907
491.2005	662.0136
491.3636	675.9836
491.5266	696.3004
491.6896	683.2943
491.8527	643.0708
492.0157	612.5898
492.1787	606.4037
492.3417	630.4312
492.5047	658.7606
492.6677	674.7729
492.8307	689.0457
492.9937	703.3852
493.1567	705.0693
493.3196	700.3413
493.4826	689.6471
493.6456	658.7441
493.8085	641.527
493.9715	657.5718
494.1344	669.9033
494.2974	700.3803
494.4603	708.5934
494.6232	702.5917
494.7861	694.1662
494.949	709.788
495.1119	707.6895
495.2748	720.4726
495.4377	698.5725
495.6006	663.6695
495.7635	650.0938
495.9264	655.322
496.0892	688.9995
496.2521	724.3813
496.4149	712.9135
496.5778	695.8279
496.7407	685.477
496.9035	689.7465
497.0663	688.2758
497.2291	702.2659
497.3919	717.7144
497.5547	717.1683
497.7176	696.8462
497.8804	695.5607
498.0432	683.9836
498.2059	669.9539
498.3687	640.8593
498.5315	637.8914
498.6942	674.9397
498.857	694.3843
499.0198	702.3345
499.1825	704.7664
499.3452	714.5497
499.508	712.3076
499.6707	704.2986
499.8334	693.267
499.9962	692.1285
500.1589	688.9589
500.3216	682.4944
500.4843	667.2415
500.6469	656.9534
500.8096	667.3185
500.9723	683.4802
501.135	689.4119
501.2976	671.4308
501.4603	646.2347
501.623	646.4052
501.7856	661.9232
501.9482	673.8721
502.1109	672.6143
502.2735	681.6447
502.4361	688.2709
502.5987	685.7933
502.7614	698.1379
502.924	703.2176
503.0865	715.7535
503.2491	727.0317
503.4117	727.5243
503.5743	711.2331
503.7368	688.2799
503.8994	675.4343
504.062	653.8166
504.2245	657.15
504.3871	687.6464
504.5496	724.6798
504.7121	733.1502
504.8746	714.2925
505.0372	695.8597
505.1997	702.0444
505.3622	715.7609
505.5247	734.0089
505.6872	750.621
505.8497	749.9188
506.0121	750.2314
506.1746	759.4601
506.3371	742.2587
506.4995	716.9983
506.662	710.785
506.8244	706.4817
506.9869	722.0361
507.1493	710.6785
507.3117	710.3431
507.4742	704.5085
507.6366	709.9178
507.799	710.4869
507.9614	687.3416
508.1238	678.3881
508.2862	692.7095
508.4485	711.7921
508.6109	717.7628
508.7733	737.1847
508.9357	738.9709
509.098	723.8113
509.2604	733.2343
509.4227	738.3054
509.5851	729.2853
509.7474	706.8464
509.9097	684.3809
510.072	692.3065
510.2343	701.0667
510.3966	720.2369
510.5589	716.3506
510.7212	699.2863
510.8835	689.0789
511.0458	695.1825
511.2081	712.9204
511.3703	729.8317
511.5326	736.3405
511.6949	731.1628
511.8571	746.4339
512.0193	726.3592
512.1816	709.3732
512.3438	696.4116
512.506	676.2393
512.6682	677.4542
512.8304	686.3452
512.9926	690.162
513.1548	691.1812
513.317	700.4478
513.4792	693.4139
513.6414	680.7531
513.8035	665.9152
513.9657	661.3204
514.1279	662.374
514.29	661.4742
514.4521	681.9518
514.6143	677.5681
514.7764	672.2423
514.9385	682.0569
515.1006	687.0767
515.2628	680.5615
515.4249	675.9715
515.587	687.2842
515.7491	698.9622
515.9111	694.4276
516.0732	693.0621
516.2353	690.5779
516.3973	660.9037
