SPECTRUM DATA FILE
SpectrumCount:	1
PixelCount:	3648
UserName:	ToughBook User
SampleName:	
LightSource:	
Comments:	
DeviceName:	Qwave
DeviceManufacturer:	Broadcom
DeviceSerialNo:	11311

Name:	last spectrum
Date:	2024-05-02T14:35:02.0772902+02:00
ExposureTime:	0.02
TemporalAvg:	1
IntensityUnit:	normalizedCounts
CCDLoadLevel:	0.1438164
Temperature:	31.71158
DiagramColor:	200
ProcessingSteps:	335

Wavelength [nm]	Intensity1
334.421	33.60438
334.5891	36.55993
334.7573	31.19751
334.9254	30.23013
335.0935	34.64086
335.2616	34.7577
335.4297	36.52574
335.5978	37.33087
335.7659	33.0779
335.934	31.0495
336.1021	32.01295
336.2701	29.3472
336.4382	28.69706
336.6063	35.33252
336.7744	30.15035
336.9424	29.17606
337.1105	31.89033
337.2785	33.38264
337.4466	34.09081
337.6146	33.21687
337.7827	30.93337
337.9507	40.38984
338.1187	35.09286
338.2867	29.2562
338.4548	34.54022
338.6228	38.34388
338.7908	37.12333
338.9588	28.05586
339.1268	31.07802
339.2948	32.39024
339.4628	38.15208
339.6308	39.86133
339.7988	36.77996
339.9667	37.23115
340.1347	38.35612
340.3027	38.45441
340.4707	38.21531
340.6386	39.35731
340.8066	35.10194
340.9745	37.73089
341.1425	37.95652
341.3104	33.59339
341.4784	39.39737
341.6463	42.78939
341.8142	43.47428
341.9821	41.98269
342.1501	42.25961
342.318	42.61535
342.4859	39.03153
342.6538	38.20031
342.8217	41.63092
342.9896	41.56592
343.1575	41.79202
343.3254	43.47043
343.4933	42.17091
343.6612	37.47205
343.829	36.98775
343.9969	35.75298
344.1648	32.70358
344.3326	35.17296
344.5005	30.80074
344.6683	37.2596
344.8362	41.04815
345.004	41.49991
345.1719	42.6467
345.3397	41.65351
345.5075	38.34231
345.6754	42.69991
345.8432	43.56088
346.011	41.72989
346.1788	45.53555
346.3466	41.63562
346.5144	43.7782
346.6822	43.44527
346.85	42.57323
347.0178	48.37788
347.1856	43.95562
347.3534	42.99599
347.5211	40.25511
347.6889	38.05403
347.8567	39.84873
348.0244	40.97411
348.1922	41.78773
348.3599	41.24383
348.5277	40.36099
348.6954	41.23551
348.8632	40.40682
349.0309	40.22963
349.1986	39.40657
349.3663	36.42832
349.5341	37.75617
349.7018	42.85305
349.8695	44.5789
350.0372	50.77137
350.2049	52.00155
350.3726	49.6852
350.5403	50.39731
350.7079	52.00903
350.8756	41.98679
351.0433	41.83809
351.211	42.45063
351.3786	45.74835
351.5463	49.47666
351.714	54.3951
351.8816	51.2395
352.0493	51.15256
352.2169	50.25891
352.3846	47.9025
352.5522	46.46814
352.7198	45.78689
352.8875	49.48369
353.0551	53.88532
353.2227	53.77331
353.3903	49.4732
353.5579	53.27682
353.7255	55.67432
353.8931	57.40388
354.0607	55.50786
354.2283	53.19459
354.3958	62.9492
354.5634	54.36775
354.731	46.6201
354.8986	54.12782
355.0661	59.70443
355.2337	52.87586
355.4012	52.01333
355.5688	56.67188
355.7363	58.0229
355.9039	54.82857
356.0714	51.21481
356.239	51.86511
356.4065	52.06061
356.574	45.89152
356.7415	44.78984
356.909	44.62505
357.0765	44.46155
357.244	46.64311
357.4115	48.39624
357.579	45.44704
357.7465	48.18314
357.914	43.25829
358.0815	42.49831
358.249	41.39101
358.4164	40.94503
358.5839	46.42662
358.7513	46.16897
358.9188	47.32771
359.0862	52.62869
359.2537	60.31768
359.4211	56.90306
359.5886	63.76105
359.756	59.37165
359.9234	58.62694
360.0909	56.55841
360.2583	55.98602
360.4257	52.94046
360.5931	49.02257
360.7605	52.29454
360.9279	53.22758
361.0953	53.82512
361.2627	55.64969
361.4301	57.61227
361.5974	50.90805
361.7648	50.51659
361.9322	53.29203
362.0995	55.18882
362.2669	56.84711
362.4343	69.95794
362.6016	64.09624
362.769	66.02352
362.9363	64.76238
363.1036	60.87154
363.271	58.68572
363.4383	56.53588
363.6056	55.42239
363.7729	61.20285
363.9402	70.44527
364.1075	68.20192
364.2748	63.13369
364.4421	62.76557
364.6094	56.62521
364.7767	59.76629
364.944	66.53362
365.1113	70.31661
365.2786	74.18114
365.4458	73.98412
365.6131	79.11895
365.7803	80.15179
365.9476	72.1352
366.1148	72.32538
366.2821	75.82126
366.4493	69.65314
366.6166	74.74564
366.7838	79.63361
366.951	73.47763
367.1182	78.02542
367.2855	75.58176
367.4527	76.50301
367.6199	76.15889
367.7871	69.76199
367.9543	66.7382
368.1215	66.13103
368.2886	69.91854
368.4558	73.07771
368.623	74.34039
368.7902	75.64557
368.9573	74.33544
369.1245	73.78684
369.2917	80.82498
369.4588	84.00773
369.6259	84.68368
369.7931	81.70612
369.9602	79.42722
370.1274	77.62018
370.2945	76.85129
370.4616	75.40989
370.6287	72.13843
370.7958	73.05445
370.963	75.38232
371.1301	85.07174
371.2971	88.17319
371.4643	88.64747
371.6313	90.15326
371.7984	83.15461
371.9655	67.70544
372.1326	63.81541
372.2997	71.85981
372.4667	76.27125
372.6338	84.39891
372.8008	82.66904
372.9679	79.76656
373.1349	72.75897
373.3019	69.77895
373.469	66.33851
373.636	61.14962
373.803	74.31442
373.9701	78.32783
374.1371	81.99393
374.3041	78.07139
374.4711	65.81564
374.6381	70.58044
374.8051	66.29259
374.9721	74.38802
375.1391	81.45894
375.3061	86.80007
375.473	96.98033
375.64	89.48353
375.8069	93.10841
375.9739	87.07355
376.1409	89.99492
376.3078	85.09652
376.4748	84.50111
376.6417	83.87807
376.8087	87.93227
376.9756	88.63107
377.1425	100.6552
377.3094	107.9479
377.4763	105.3227
377.6432	104.6455
377.8102	107.77
377.9771	108.7473
378.144	116.4391
378.3109	113.0571
378.4777	108.4278
378.6446	95.6328
378.8115	94.31232
378.9784	93.18452
379.1452	94.3411
379.3121	91.23832
379.4789	86.21449
379.6458	84.51537
379.8127	86.05368
379.9795	89.76844
380.1463	97.86771
380.3131	103.496
380.48	102.858
380.6468	103.1342
380.8136	108.6436
380.9804	109.285
381.1472	104.2733
381.314	96.48418
381.4808	87.37429
381.6476	86.01494
381.8144	86.52851
381.9812	84.55412
382.148	78.85078
382.3147	79.39981
382.4815	78.80788
382.6483	75.54053
382.815	68.22157
382.9818	72.13402
383.1485	73.02816
383.3153	72.98789
383.482	75.8243
383.6487	76.53547
383.8155	75.64688
383.9822	77.59546
384.1489	89.60616
384.3156	98.71302
384.4823	105.73
384.649	105.6745
384.8157	107.9376
384.9824	101.9715
385.1491	105.6541
385.3158	105.4355
385.4825	97.07796
385.6491	91.39006
385.8158	93.89629
385.9825	87.64353
386.1491	99.40683
386.3157	113.2683
386.4824	110.3924
386.649	107.0945
386.8157	95.03661
386.9823	97.00327
387.1489	97.70602
387.3156	105.9357
387.4821	107.8068
387.6488	105.6654
387.8154	103.9857
387.982	100.0691
388.1486	98.78831
388.3152	100.7274
388.4818	96.75028
388.6483	97.81365
388.8149	103.6414
388.9815	111.953
389.148	118.7811
389.3146	126.4977
389.4811	126.857
389.6477	130.4483
389.8142	136.5107
389.9808	138.4472
390.1473	127.1822
390.3138	120.5847
390.4804	119.3571
390.6469	128.845
390.8134	134.8577
390.9799	135.4298
391.1464	145.0078
391.3129	143.9084
391.4794	139.6666
391.6459	143.9689
391.8124	134.1973
391.9789	124.8927
392.1453	120.3048
392.3118	118.5234
392.4782	112.6922
392.6447	100.6746
392.8112	93.70514
392.9776	71.61393
393.144	62.45079
393.3105	60.95371
393.4769	65.61302
393.6433	71.95272
393.8098	85.70448
393.9762	101.0954
394.1426	111.0856
394.309	112.6891
394.4754	128.4497
394.6418	133.1987
394.8082	144.3434
394.9746	149.1074
395.141	154.7531
395.3073	158.589
395.4737	156.5861
395.64	155.1046
395.8064	147.0625
395.9728	137.7704
396.1391	122.5624
396.3055	116.9774
396.4718	101.1279
396.6381	83.36119
396.8045	71.89884
396.9708	74.82899
397.1371	86.42269
397.3034	112.1043
397.4697	123.9383
397.636	148.9969
397.8023	164.2468
397.9686	173.3997
398.1349	171.7914
398.3012	169.6236
398.4675	178.4575
398.6337	186.6071
398.8	184.2607
398.9662	191.5175
399.1325	196.4553
399.2988	197.7577
399.465	191.6576
399.6313	194.3626
399.7975	195.6036
399.9637	196.3601
400.1299	200.2585
400.2961	199.1197
400.4624	190.9583
400.6286	189.8108
400.7948	193.2202
400.961	209.154
401.1272	214.8795
401.2934	213.3956
401.4595	206.2781
401.6257	214.9453
401.7919	211.9775
401.9581	217.6307
402.1242	212.4804
402.2904	211.4549
402.4565	210.8712
402.6227	218.3115
402.7888	218.1958
402.955	210.2632
403.1211	201.5402
403.2872	197.4726
403.4533	202.0605
403.6194	213.399
403.7856	225.8219
403.9517	235.3564
404.1177	224.4262
404.2838	210.5505
404.4499	198.7378
404.616	189.4277
404.7821	201.3325
404.9482	224.6631
405.1142	233.6954
405.2803	219.1676
405.4464	217.3283
405.6124	213.0586
405.7784	208.8087
405.9445	211.7702
406.1105	210.6587
406.2766	215.9007
406.4426	212.1201
406.6086	214.5087
406.7746	222.7617
406.9406	224.3635
407.1066	226.6355
407.2726	219.2895
407.4386	215.6481
407.6046	215.8892
407.7706	224.598
407.9366	226.8121
408.1025	240.2773
408.2685	238.1592
408.4344	248.6695
408.6004	254.9971
408.7664	263.0641
408.9323	267.5474
409.0983	264.7912
409.2642	260.2956
409.4301	255.7916
409.596	239.8829
409.762	229.5388
409.9279	221.6208
410.0938	210.2235
410.2597	209.9179
410.4256	217.0542
410.5915	237.1152
410.7574	254.8802
410.9232	252.8334
411.0891	255.9044
411.255	262.8802
411.4209	272.0418
411.5867	271.9231
411.7526	278.2732
411.9184	273.6743
412.0843	273.0943
412.2501	270.1259
412.4159	266.883
412.5818	265.9387
412.7476	269.8575
412.9134	261.8931
413.0792	256.9112
413.245	256.5327
413.4108	261.8917
413.5766	272.3361
413.7424	277.7797
413.9082	274.3904
414.074	287.2997
414.2397	268.7507
414.4055	260.938
414.5713	264.5879
414.737	277.5562
414.9028	275.8572
415.0685	268.1761
415.2343	270.0974
415.4	264.4623
415.5658	266.8512
415.7315	270.557
415.8972	275.1879
416.0629	285.4554
416.2286	297.5756
416.3943	301.5585
416.56	292.6365
416.7257	282.5423
416.8914	278.7159
417.0571	278.7171
417.2228	259.0774
417.3884	259.2826
417.5541	274.5748
417.7198	275.592
417.8854	278.6002
418.0511	277.7312
418.2167	272.316
418.3824	277.9028
418.548	278.4496
418.7136	274.3067
418.8792	279.4313
419.0449	284.2094
419.2105	298.5153
419.3761	302.4132
419.5417	292.292
419.7073	277.8994
419.8729	268.5084
420.0385	270.005
420.204	281.7443
420.3696	292.5092
420.5352	310.868
420.7007	316.1957
420.8663	318.1486
421.0319	319.7083
421.1974	311.3401
421.3629	315.5743
421.5285	303.5823
421.694	304.896
421.8595	322.1555
422.0251	326.8062
422.1906	315.6352
422.3561	298.1283
422.5216	272.7544
422.6871	258.7815
422.8526	278.6287
423.0181	313.6034
423.1835	324.2682
423.349	314.1382
423.5145	302.3765
423.68	305.0724
423.8454	309.2298
424.0109	317.4626
424.1763	320.5254
424.3418	325.729
424.5072	324.2215
424.6726	321.0055
424.838	308.407
425.0035	290.6399
425.1689	306.2357
425.3343	316.5079
425.4997	319.3433
425.6651	319.5456
425.8305	311.5011
425.9959	300.4152
426.1613	310.6594
426.3267	320.6766
426.492	330.177
426.6574	332.9434
426.8228	316.9866
426.9881	297.8955
427.1534	273.2607
427.3188	273.9549
427.4841	287.6815
427.6495	312.562
427.8148	326.5321
427.9801	324.9178
428.1454	328.05
428.3107	326.8763
428.476	316.6625
428.6414	317.6485
428.8066	303.4997
428.9719	291.8263
429.1372	293.3629
429.3025	308.2818
429.4678	305.0547
429.633	293.9609
429.7983	265.3009
429.9636	245.9485
430.1288	232.0347
430.294	229.4252
430.4593	245.3872
430.6245	243.9927
430.7897	236.7752
430.955	234.6904
431.1202	241.3797
431.2854	274.3065
431.4506	309.784
431.6158	352.5731
431.781	379.1969
431.9462	391.5309
432.1114	366.3275
432.2766	322.6188
432.4417	296.9261
432.6069	294.8349
432.772	325.0359
432.9372	362.8554
433.1024	371.7725
433.2675	373.6483
433.4326	380.0779
433.5977	365.0992
433.7629	330.7077
433.928	291.9432
434.0931	282.8429
434.2582	306.5043
434.4233	341.4079
434.5884	366.0244
434.7535	378.3494
434.9186	378.3102
435.0837	360.6517
435.2488	355.7441
435.4138	368.8117
435.5789	375.5136
435.744	386.4908
435.909	399.718
436.0741	401.8594
436.2391	400.5976
436.4042	414.2554
436.5692	412.6809
436.7342	399.5297
436.8992	401.8125
437.0643	399.1078
437.2293	385.5108
437.3943	378.5675
437.5593	375.5889
437.7243	383.4499
437.8893	399.2798
438.0542	384.8946
438.2192	349.2697
438.3842	333.498
438.5491	335.1262
438.7141	351.9773
438.8791	368.1983
439.044	377.0789
439.209	383.1246
439.3739	384.9102
439.5388	395.7929
439.7037	408.6123
439.8687	408.657
440.0336	401.6017
440.1985	397.4579
440.3634	393.0849
440.5283	383.1599
440.6932	386.7046
440.8581	401.9465
441.0229	427.0796
441.1878	451.2281
441.3527	429.5021
441.5175	411.703
441.6824	413.761
441.8472	434.2332
442.0121	450.6875
442.1769	440.2168
442.3418	436.6275
442.5066	425.2155
442.6714	442.7785
442.8362	443.262
443.001	445.9191
443.1659	437.9645
443.3307	422.2205
443.4955	415.5221
443.6602	444.36
443.825	449.51
443.9898	447.1122
444.1546	445.3635
444.3193	452.4911
444.4841	457.9099
444.6488	463.067
444.8136	472.8575
444.9783	456.6061
445.1431	449.6213
445.3078	443.3364
445.4725	429.2069
445.6372	411.0942
445.802	410.2446
445.9667	415.2126
446.1314	421.0811
446.2961	445.3156
446.4608	446.588
446.6255	456.5318
446.7901	463.8687
446.9548	460.9168
447.1195	465.6997
447.2841	477.7849
447.4488	494.4986
447.6134	509.6841
447.7781	496.2964
447.9427	482.4332
448.1074	460.9856
448.272	462.9536
448.4366	476.9683
448.6012	497.8907
448.7658	496.1482
448.9305	475.3554
449.095	474.8728
449.2596	477.6935
449.4242	478.1724
449.5888	481.7583
449.7534	500.179
449.9179	508.9985
450.0825	508.6425
450.2471	513.3421
450.4116	536.9675
450.5762	546.6782
450.7407	538.2726
450.9052	533.9827
451.0698	532.2758
451.2343	525.6652
451.3988	519.5906
451.5633	514.2578
451.7278	507.6149
451.8923	521.6041
452.0568	524.7629
452.2213	521.1
452.3858	524.8609
452.5503	510.1093
452.7148	480.4349
452.8792	456.3856
453.0437	470.6855
453.2081	480.6895
453.3726	492.9171
453.537	491.9797
453.7015	498.6571
453.8659	527.9208
454.0303	530.8862
454.1947	522.9548
454.3592	525.306
454.5236	525.9933
454.688	517.3933
454.8524	494.5422
455.0168	500.2437
455.1811	500.5574
455.3455	511.6879
455.5099	505.8189
455.6743	510.3262
455.8386	531.6692
456.003	533.0729
456.1673	528.6467
456.3317	523.7334
456.496	524.8201
456.6603	527.6554
456.8246	537.5688
456.989	540.8635
457.1533	543.5611
457.3176	541.4283
457.4819	550.0973
457.6462	548.505
457.8105	542.512
457.9748	537.4754
458.1391	512.0052
458.3033	501.3763
458.4676	503.6068
458.6319	507.6112
458.7961	520.0305
458.9604	532.1263
459.1246	534.8696
459.2888	519.6739
459.4531	518.0615
459.6173	524.7273
459.7815	516.2698
459.9457	518.196
460.11	516.4398
460.2741	524.699
460.4384	532.9965
460.6025	536.5133
460.7667	542.596
460.9309	546.884
461.0951	541.8176
461.2592	546.4084
461.4234	537.8196
461.5876	546.0715
461.7517	539.6993
461.9159	549.4722
462.08	555.5251
462.2441	551.1837
462.4082	562.0977
462.5724	558.3349
462.7365	554.5999
462.9006	560.7795
463.0647	562.0913
463.2288	567.2746
463.3929	559.389
463.557	560.3877
463.721	546.0698
463.8851	550.1548
464.0492	549.7485
464.2132	557.5903
464.3773	555.2729
464.5414	540.8054
464.7054	529.1992
464.8694	530.7231
465.0334	542.6093
465.1975	556.5135
465.3615	550.2678
465.5255	554.4879
465.6895	559.3215
465.8535	572.5193
466.0175	577.4371
466.1815	583.233
466.3455	566.2655
466.5095	533.8465
466.6734	516.8957
466.8374	511.6517
467.0014	528.4489
467.1653	551.8344
467.3293	570.478
467.4932	575.5369
467.6571	567.4664
467.8211	565.8915
467.985	557.6967
468.1489	558.4481
468.3128	562.7321
468.4767	567.5269
468.6406	570.3545
468.8045	573.3621
468.9684	569.3044
469.1323	572.3414
469.2962	580.65
469.46	581.9344
469.6239	577.1338
469.7878	571.8365
469.9516	560.6974
470.1154	544.6661
470.2793	540.5995
470.4431	545.5397
470.607	553.8444
470.7708	551.4509
470.9346	554.7889
471.0984	557.0053
471.2622	570.1525
471.426	571.681
471.5898	576.1649
471.7536	591.3155
471.9174	608.3688
472.0811	614.421
472.2449	605.5028
472.4087	609.1885
472.5724	601.2864
472.7362	590.7623
472.8999	573.9261
473.0637	569.0829
473.2274	561.3278
473.3911	574.0005
473.5548	566.314
473.7185	572.531
473.8822	582.1767
474.0459	587.1848
474.2096	598.3141
474.3733	607.7616
474.537	610.5221
474.7007	601.9639
474.8643	595.2932
475.028	588.6933
475.1917	591.4374
475.3553	580.1443
475.519	567.604
475.6826	580.7589
475.8463	585.8842
476.0099	588.8378
476.1735	577.2553
476.3371	556.637
476.5007	549.3149
476.6643	560.0421
476.8279	577.7505
476.9915	585.24
477.1551	587.438
477.3187	589.2769
477.4823	597.636
477.6458	610.3589
477.8094	612.4648
477.9729	610.6115
478.1365	597.7969
478.3	589.6816
478.4636	587.8168
478.6271	580.7045
478.7906	578.3353
478.9541	581.7293
479.1176	586.5937
479.2812	600.0339
479.4447	604.5806
479.6082	608.637
479.7716	605.7279
479.9351	591.2236
480.0986	581.6886
480.2621	594.1262
480.4255	594.5475
480.589	592.4168
480.7524	580.9684
480.9159	586.2214
481.0793	594.5817
481.2428	595.6187
481.4062	599.7687
481.5696	610.7601
481.733	609.2281
481.8964	607.061
482.0598	611.9831
482.2232	600.5099
482.3866	603.9894
482.55	592.6199
482.7134	593.6441
482.8768	600.7554
483.0401	589.4814
483.2035	591.9258
483.3668	595.5482
483.5302	602.4169
483.6935	594.5655
483.8568	593.575
484.0202	590.338
484.1835	579.5196
484.3468	580.6539
484.5101	591.0812
484.6734	591.2697
484.8367	591.869
485	587.6885
485.1633	584.6301
485.3266	578.2957
485.4899	546.4339
485.6531	538.3222
485.8164	521.6912
485.9796	479.6566
486.1429	444.1987
486.3061	445.8899
486.4694	492.1371
486.6326	533.289
486.7958	547.8173
486.959	541.5534
487.1223	527.9482
487.2855	537.666
487.4486	554.7771
487.6118	578.8111
487.775	583.4678
487.9382	593.2038
488.1014	601.9955
488.2646	594.6145
488.4277	585.1776
488.5909	573.0551
488.754	565.1921
488.9171	557.3554
489.0803	544.8206
489.2434	566.6422
489.4066	589.1179
489.5697	625.7291
489.7328	630.7077
489.8959	616.8416
490.059	613.5962
490.2221	607.2092
490.3852	606.4879
490.5482	605.7761
490.7113	604.2012
490.8744	587.9748
491.0374	584.7562
491.2005	584.7183
491.3636	591.5821
491.5266	603.7158
491.6896	589.08
491.8527	566.5259
492.0157	544.1721
492.1787	535.2375
492.3417	554.8071
492.5047	580.2939
492.6677	588.9177
492.8307	601.6765
492.9937	617.6981
493.1567	610.7971
493.3196	597.1107
493.4826	590.7312
493.6456	580.5051
493.8085	571.2395
493.9715	576.3126
494.1344	587.171
494.2974	611.9056
494.4603	625.8919
494.6232	613.6398
494.7861	621.5174
494.949	632.5771
495.1119	630.2693
495.2748	631.5563
495.4377	609.7332
495.6006	586.7628
495.7635	563.8951
495.9264	577.2261
496.0892	606.5743
496.2521	628.3258
496.4149	634.8765
496.5778	628.9757
496.7407	619.5878
496.9035	615.4964
497.0663	610.2715
497.2291	620.1403
497.3919	625.7459
497.5547	625.0278
497.7176	619.0526
497.8804	609.6559
498.0432	598.7458
498.2059	587.0817
498.3687	564.8951
498.5315	569.567
498.6942	593.1766
498.857	617.7092
499.0198	623.0807
499.1825	611.605
499.3452	614.1384
499.508	625.8227
499.6707	622.5111
499.8334	623.9025
499.9962	607.3433
500.1589	590.3004
500.3216	589.009
500.4843	579.7482
500.6469	575.3259
500.8096	588.7542
500.9723	606.4483
501.135	603.5315
501.2976	585.5771
501.4603	562.4159
501.623	563.9018
501.7856	568.4068
501.9482	589.5104
502.1109	599.8182
502.2735	597.5
502.4361	607.2195
502.5987	609.5669
502.7614	611.2144
502.924	622.3297
503.0865	632.3031
503.2491	633.9105
503.4117	631.4428
503.5743	610.9266
503.7368	597.946
503.8994	582.9606
504.062	567.2068
504.2245	580.019
504.3871	609.2568
504.5496	642.468
504.7121	643.6043
504.8746	622.376
505.0372	610.8544
505.1997	611.157
505.3622	622.1579
505.5247	638.9278
505.6872	650.5683
505.8497	649.6602
506.0121	667.7825
506.1746	663.0208
506.3371	655.577
506.4995	643.6329
506.662	628.7244
506.8244	635.2867
506.9869	628.506
507.1493	627.8275
507.3117	628.2892
507.4742	622.0027
507.6366	626.3936
507.799	611.4374
507.9614	597.6532
508.1238	596.859
508.2862	606.7219
508.4485	634.5424
508.6109	643.7665
508.7733	647.7997
508.9357	640.4607
509.098	643.8225
509.2604	655.7388
509.4227	645.4308
509.5851	635.3833
509.7474	618.1361
509.9097	611.9735
510.072	616.9486
510.2343	629.4871
510.3966	634.9172
510.5589	626.4677
510.7212	613.1805
510.8835	621.7686
511.0458	622.9476
511.2081	620.2086
511.3703	640.4922
511.5326	646.6046
511.6949	641.4293
511.8571	645.3959
512.0193	640.569
512.1816	616.0795
512.3438	592.8331
512.506	597.3837
512.6682	595.3756
512.8304	595.0521
512.9926	599.9059
513.1548	601.2587
513.317	595.0711
513.4792	606.7318
513.6414	598.5696
513.8035	582.6695
513.9657	582.7604
514.1279	575.6818
514.29	580.5197
514.4521	588.3458
514.6143	588.2925
514.7764	597.3053
514.9385	595.5842
515.1006	601.5751
515.2628	612.7272
515.4249	584.3382
515.587	596.0956
515.7491	598.2717
515.9111	606.2509
516.0732	609.0436
516.2353	591.3043
