SPECTRUM DATA FILE
SpectrumCount:	1
PixelCount:	3648
UserName:	ToughBook User
SampleName:	
LightSource:	
Comments:	
DeviceName:	Qwave
DeviceManufacturer:	Broadcom
DeviceSerialNo:	11311

Name:	last spectrum
Date:	2024-05-02T14:33:36.9142066+02:00
ExposureTime:	0.02
TemporalAvg:	1
IntensityUnit:	normalizedCounts
CCDLoadLevel:	0.1692172
Temperature:	30.95038
DiagramColor:	200
ProcessingSteps:	335

Wavelength [nm]	Intensity1
334.421	40.11504
334.5891	36.79047
334.7573	37.23552
334.9254	37.62316
335.0935	34.59047
335.2616	34.05914
335.4297	36.75928
335.5978	34.9736
335.7659	33.04364
335.934	32.67502
336.1021	33.20602
336.2701	30.2434
336.4382	30.62241
336.6063	34.93203
336.7744	33.49106
336.9424	34.32295
337.1105	35.86567
337.2785	34.47477
337.4466	40.01021
337.6146	37.82467
337.7827	38.8355
337.9507	29.26719
338.1187	35.32365
338.2867	39.83116
338.4548	33.79039
338.6228	37.09448
338.7908	32.01363
338.9588	35.80259
339.1268	42.94124
339.2948	38.88887
339.4628	32.48159
339.6308	33.67813
339.7988	37.8726
339.9667	37.56657
340.1347	39.33341
340.3027	38.74365
340.4707	40.15049
340.6386	42.16095
340.8066	39.30323
340.9745	37.22655
341.1425	33.45701
341.3104	35.90636
341.4784	39.53529
341.6463	38.68443
341.8142	41.59451
341.9821	41.06743
342.1501	39.41258
342.318	42.92112
342.4859	41.33443
342.6538	42.81091
342.8217	41.47736
342.9896	40.00688
343.1575	47.14577
343.3254	43.31833
343.4933	38.65907
343.6612	40.89939
343.829	36.00289
343.9969	37.14441
344.1648	35.52092
344.3326	32.28988
344.5005	38.64412
344.6683	39.90797
344.8362	44.20912
345.004	45.85754
345.1719	45.0799
345.3397	46.40174
345.5075	46.81893
345.6754	43.15098
345.8432	43.59952
346.011	40.32134
346.1788	40.09269
346.3466	40.61688
346.5144	40.74104
346.6822	47.80342
346.85	50.9258
347.0178	45.19376
347.1856	44.98946
347.3534	39.81723
347.5211	43.54157
347.6889	41.32869
347.8567	44.65646
348.0244	45.39876
348.1922	45.09279
348.3599	44.2781
348.5277	42.36572
348.6954	41.15142
348.8632	41.92727
349.0309	37.65583
349.1986	43.02293
349.3663	42.08012
349.5341	41.36144
349.7018	38.86594
349.8695	46.79902
350.0372	53.45371
350.2049	51.65592
350.3726	49.07958
350.5403	50.07206
350.7079	52.39874
350.8756	47.67442
351.0433	44.94245
351.211	52.13375
351.3786	42.73092
351.5463	46.53677
351.714	50.48701
351.8816	51.04166
352.0493	56.42502
352.2169	49.01296
352.3846	46.44751
352.5522	46.60874
352.7198	44.74211
352.8875	53.11489
353.0551	53.71563
353.2227	54.92421
353.3903	52.3485
353.5579	56.54835
353.7255	49.65219
353.8931	59.26344
354.0607	56.45985
354.2283	56.9006
354.3958	61.74864
354.5634	56.56048
354.731	61.76747
354.8986	56.23251
355.0661	54.69621
355.2337	58.46796
355.4012	54.63108
355.5688	49.34439
355.7363	54.98463
355.9039	55.06876
356.0714	55.71563
356.239	57.15573
356.4065	53.10622
356.574	51.51588
356.7415	49.33224
356.909	43.85217
357.0765	48.37209
357.244	48.92704
357.4115	52.4314
357.579	49.17501
357.7465	44.55848
357.914	45.58796
358.0815	45.992
358.249	41.87211
358.4164	42.80001
358.5839	44.22543
358.7513	40.99267
358.9188	48.97054
359.0862	55.29332
359.2537	59.84697
359.4211	63.40842
359.5886	67.50559
359.756	67.03421
359.9234	67.45001
360.0909	67.62796
360.2583	63.24599
360.4257	62.08381
360.5931	61.713
360.7605	55.96972
360.9279	54.39598
361.0953	53.65736
361.2627	55.57123
361.4301	65.36164
361.5974	56.29311
361.7648	55.05747
361.9322	52.12625
362.0995	54.91092
362.2669	61.10133
362.4343	65.57845
362.6016	67.15907
362.769	76.28483
362.9363	66.96265
363.1036	64.50916
363.271	53.86554
363.4383	57.90205
363.6056	64.1017
363.7729	66.09407
363.9402	69.56738
364.1075	77.44366
364.2748	71.61739
364.4421	68.2632
364.6094	67.28203
364.7767	62.91779
364.944	61.34944
365.1113	68.19663
365.2786	71.24784
365.4458	79.93373
365.6131	79.2198
365.7803	82.1073
365.9476	78.91706
366.1148	77.6022
366.2821	86.86897
366.4493	84.78365
366.6166	73.76404
366.7838	78.08383
366.951	79.31233
367.1182	73.41711
367.2855	79.20798
367.4527	83.3316
367.6199	81.07609
367.7871	74.19069
367.9543	68.57593
368.1215	74.14624
368.2886	74.9785
368.4558	77.63481
368.623	73.71032
368.7902	71.26505
368.9573	77.15327
369.1245	87.53395
369.2917	88.30236
369.4588	83.56125
369.6259	84.7037
369.7931	91.52209
369.9602	94.008
370.1274	88.98832
370.2945	86.53159
370.4616	76.56664
370.6287	77.30015
370.7958	78.16764
370.963	85.1372
371.1301	93.15688
371.2971	97.89704
371.4643	100.8836
371.6313	89.40039
371.7984	79.48675
371.9655	77.09062
372.1326	73.85009
372.2997	78.17975
372.4667	83.01141
372.6338	86.25556
372.8008	85.18359
372.9679	91.41617
373.1349	85.11913
373.3019	75.98869
373.469	69.43709
373.636	70.46171
373.803	74.35396
373.9701	81.8304
374.1371	87.19231
374.3041	84.02726
374.4711	80.59486
374.6381	67.11401
374.8051	70.26137
374.9721	75.99776
375.1391	84.67331
375.3061	95.26833
375.473	98.36977
375.64	100.3317
375.8069	95.84219
375.9739	87.28305
376.1409	92.21217
376.3078	91.42816
376.4748	91.60984
376.6417	94.8681
376.8087	92.85204
376.9756	96.15173
377.1425	103.3971
377.3094	109.0493
377.4763	108.2284
377.6432	107.7306
377.8102	113.7163
377.9771	122.268
378.144	123.8284
378.3109	117.1779
378.4777	116.4584
378.6446	108.923
378.8115	101.8793
378.9784	95.92215
379.1452	96.9637
379.3121	94.86765
379.4789	95.98113
379.6458	92.01155
379.8127	90.71779
379.9795	94.59985
380.1463	105.8522
380.3131	112.2929
380.48	116.2821
380.6468	118.1366
380.8136	115.6977
380.9804	119.0642
381.1472	115.8167
381.314	105.513
381.4808	95.79158
381.6476	95.59492
381.8144	90.97711
381.9812	92.72189
382.148	87.64739
382.3147	89.99713
382.4815	83.71957
382.6483	79.17466
382.815	76.45414
382.9818	82.80651
383.1485	81.15062
383.3153	78.00684
383.482	76.99618
383.6487	79.39152
383.8155	75.29091
383.9822	74.14931
384.1489	84.94508
384.3156	99.71996
384.4823	118.9048
384.649	124.2525
384.8157	114.6293
384.9824	116.4816
385.1491	113.7248
385.3158	120.834
385.4825	107.249
385.6491	102.7134
385.8158	98.33759
385.9825	90.9475
386.1491	101.1508
386.3157	110.5194
386.4824	114.9305
386.649	119.7831
386.8157	121.9493
386.9823	112.1702
387.1489	107.6027
387.3156	115.546
387.4821	115.6427
387.6488	124.4014
387.8154	112.2408
387.982	117.6823
388.1486	110.6777
388.3152	111.6584
388.4818	111.9469
388.6483	105.3958
388.8149	105.4622
388.9815	115.559
389.148	128.6683
389.3146	139.9941
389.4811	139.8141
389.6477	141.3714
389.8142	140.6192
389.9808	138.5448
390.1473	133.7018
390.3138	136.2492
390.4804	127.0628
390.6469	131.6007
390.8134	145.1868
390.9799	150.8546
391.1464	159.0601
391.3129	155.7502
391.4794	160.0622
391.6459	158.2986
391.8124	152.1765
391.9789	139.5636
392.1453	136.4807
392.3118	129.4447
392.4782	124.5593
392.6447	117.1765
392.8112	96.75545
392.9776	81.9297
393.144	74.42911
393.3105	61.17004
393.4769	66.61825
393.6433	74.73304
393.8098	93.19822
393.9762	108.5216
394.1426	121.8911
394.309	128.6331
394.4754	135.4009
394.6418	141.1777
394.8082	153.5469
394.9746	160.3606
395.141	168.5603
395.3073	166.6146
395.4737	165.0646
395.64	165.8459
395.8064	164.298
395.9728	149.1151
396.1391	142.6933
396.3055	125.7239
396.4718	105.2903
396.6381	85.35393
396.8045	74.21432
396.9708	76.53039
397.1371	94.06579
397.3034	112.6157
397.4697	136.5621
397.636	159.6552
397.8023	170.4158
397.9686	183.4274
398.1349	189.1362
398.3012	195.2618
398.4675	199.2915
398.6337	201.3726
398.8	204.5155
398.9662	209.5455
399.1325	217.8432
399.2988	220.9103
399.465	223.4058
399.6313	220.5034
399.7975	211.4686
399.9637	218.5704
400.1299	218.6466
400.2961	218.5254
400.4624	207.3195
400.6286	204.8757
400.7948	215.306
400.961	230.1314
401.1272	232.1136
401.2934	236.0652
401.4595	241.0473
401.6257	239.5413
401.7919	233.0869
401.9581	231.0614
402.1242	235.5721
402.2904	237.6119
402.4565	239.6955
402.6227	242.3213
402.7888	244.9998
402.955	229.622
403.1211	221.1827
403.2872	218.984
403.4533	223.81
403.6194	239.6178
403.7856	246.3921
403.9517	255.2113
404.1177	254.8966
404.2838	240.9728
404.4499	214.3026
404.616	212.552
404.7821	228.5757
404.9482	252.2435
405.1142	257.1887
405.2803	248.6618
405.4464	245.7693
405.6124	239.5661
405.7784	238.45
405.9445	239.5862
406.1105	242.4682
406.2766	224.5377
406.4426	227.7094
406.6086	233.2464
406.7746	243.2386
406.9406	252.7509
407.1066	258.5587
407.2726	247.8417
407.4386	247.9728
407.6046	258.1064
407.7706	255.6247
407.9366	252.4446
408.1025	270.9092
408.2685	269.4278
408.4344	276.2265
408.6004	279.7529
408.7664	286.0346
408.9323	296.7213
409.0983	293.9079
409.2642	292.1699
409.4301	279.5848
409.596	273.6579
409.762	268.6749
409.9279	244.492
410.0938	226.7429
410.2597	229.3997
410.4256	242.8367
410.5915	259.3672
410.7574	274.7782
410.9232	283.1588
411.0891	290.0324
411.255	286.613
411.4209	306.6231
411.5867	308.8117
411.7526	303.7971
411.9184	296.5373
412.0843	292.1443
412.2501	302.1931
412.4159	305.224
412.5818	304.2029
412.7476	291.9593
412.9134	289.3581
413.0792	285.9716
413.245	279.1136
413.4108	284.9227
413.5766	286.0989
413.7424	309.7033
413.9082	324.5773
414.074	313.5002
414.2397	292.0742
414.4055	284.8714
414.5713	298.3542
414.737	298.5145
414.9028	305.0017
415.0685	302.6757
415.2343	293.8467
415.4	293.8749
415.5658	293.727
415.7315	288.2292
415.8972	304.6832
416.0629	314.9934
416.2286	326.3127
416.3943	332.5652
416.56	319.3301
416.7257	320.4074
416.8914	317.7911
417.0571	303.834
417.2228	295.778
417.3884	291.3611
417.5541	302.4321
417.7198	304.3967
417.8854	310.2989
418.0511	316.907
418.2167	308.2913
418.3824	310.5454
418.548	311.7152
418.7136	299.9524
418.8792	311.9444
419.0449	313.5409
419.2105	325.4512
419.3761	337.5597
419.5417	326.7958
419.7073	309.5954
419.8729	305.6387
420.0385	303.8932
420.204	307.8623
420.3696	327.7705
420.5352	343.9872
420.7007	355.1795
420.8663	363.8423
421.0319	361.6277
421.1974	361.2087
421.3629	360.2116
421.5285	345.6379
421.694	340.2645
421.8595	351.2222
422.0251	365.4531
422.1906	361.7546
422.3561	343.9637
422.5216	306.5202
422.6871	289.047
422.8526	316.6402
423.0181	343.162
423.1835	365.1488
423.349	356.7422
423.5145	344.0194
423.68	328.3432
423.8454	333.5732
424.0109	356.8926
424.1763	366.4323
424.3418	372.1155
424.5072	380.7509
424.6726	368.6309
424.838	352.6064
425.0035	332.5992
425.1689	343.106
425.3343	357.3332
425.4997	355.7199
425.6651	355.256
425.8305	354.6431
425.9959	346.6396
426.1613	338.1579
426.3267	356.0213
426.492	375.9285
426.6574	380.4573
426.8228	365.0113
426.9881	339.3799
427.1534	320.4116
427.3188	304.8956
427.4841	318.4386
427.6495	351.114
427.8148	359.1798
427.9801	359.1221
428.1454	354.9711
428.3107	355.6759
428.476	366.9795
428.6414	351.3053
428.8066	336.8441
428.9719	332.3673
429.1372	341.9802
429.3025	342.1219
429.4678	341.9293
429.633	330.0451
429.7983	308.1632
429.9636	278.3001
430.1288	265.0567
430.294	262.8943
430.4593	267.8759
430.6245	269.7818
430.7897	256.3479
430.955	252.1968
431.1202	265.4867
431.2854	301.7202
431.4506	355.2459
431.6158	394.4704
431.781	430.3506
431.9462	437.5185
432.1114	420.1333
432.2766	382.0872
432.4417	345.9957
432.6069	325.8367
432.772	364.6251
432.9372	411.8545
433.1024	436.254
433.2675	432.2014
433.4326	425.7316
433.5977	405.5786
433.7629	370.5529
433.928	332.9749
434.0931	319.0653
434.2582	341.5806
434.4233	376.5199
434.5884	419.0935
434.7535	429.2583
434.9186	435.7188
435.0837	422.3673
435.2488	412.0433
435.4138	400.0353
435.5789	410.6593
435.744	432.6189
435.909	450.0042
436.0741	449.4684
436.2391	457.9711
436.4042	463.5157
436.5692	465.1778
436.7342	467.1219
436.8992	454.9679
437.0643	451.6795
437.2293	438.4854
437.3943	427.568
437.5593	426.4865
437.7243	432.1051
437.8893	447.5601
438.0542	444.6937
438.2192	401.8131
438.3842	368.5924
438.5491	375.0951
438.7141	396.4254
438.8791	424.284
439.044	436.5323
439.209	445.4163
439.3739	445.3076
439.5388	452.018
439.7037	472.5258
439.8687	466.9142
440.0336	467.5005
440.1985	451.8804
440.3634	432.3764
440.5283	425.2577
440.6932	430.6495
440.8581	460.3703
441.0229	480.1755
441.1878	494.1016
441.3527	491.369
441.5175	478.7148
441.6824	472.8001
441.8472	491.0985
442.0121	520.3857
442.1769	518.9508
442.3418	495.878
442.5066	493.4322
442.6714	502.8672
442.8362	502.73
443.001	504.8635
443.1659	499.7881
443.3307	492.1011
443.4955	477.1412
443.6602	486.224
443.825	513.1974
443.9898	521.6496
444.1546	510.8331
444.3193	498.7433
444.4841	504.6013
444.6488	508.0953
444.8136	528.1077
444.9783	529.2899
445.1431	525.5828
445.3078	505.5586
445.4725	478.2417
445.6372	474.9441
445.802	468.814
445.9667	474.5625
446.1314	485.3489
446.2961	500.7112
446.4608	527.1545
446.6255	535.4894
446.7901	527.6714
446.9548	516.8745
447.1195	532.7117
447.2841	546.4398
447.4488	562.5757
447.6134	572.7335
447.7781	572.4435
447.9427	548.4439
448.1074	517.8713
448.272	522.8434
448.4366	542.4305
448.6012	567.902
448.7658	572.3092
448.9305	557.4916
449.095	552.5465
449.2596	555.3308
449.4242	555.4796
449.5888	557.3293
449.7534	568.0486
449.9179	583.1071
450.0825	579.2344
450.2471	588.9083
450.4116	608.9164
450.5762	626.5023
450.7407	639.9677
450.9052	624.0433
451.0698	616.2661
451.2343	597.6558
451.3988	601.9949
451.5633	594.7527
451.7278	594.0447
451.8923	596.7447
452.0568	604.8214
452.2213	604.3087
452.3858	602.5129
452.5503	573.1227
452.7148	555.1738
452.8792	533.6986
453.0437	535.041
453.2081	545.1509
453.3726	543.0327
453.537	548.6807
453.7015	580.5184
453.8659	604.7427
454.0303	599.5491
454.1947	602.0931
454.3592	605.0363
454.5236	607.814
454.688	596.9006
454.8524	581.8391
455.0168	570.2473
455.1811	572.8295
455.3455	591.7733
455.5099	592.8915
455.6743	597.3163
455.8386	607.9972
456.003	623.3052
456.1673	630.2211
456.3317	612.7165
456.496	601.4805
456.6603	605.6193
456.8246	624.73
456.989	617.3747
457.1533	615.3688
457.3176	611.9205
457.4819	624.7078
457.6462	635.6717
457.8105	624.8584
457.9748	597.4525
458.1391	584.5172
458.3033	574.1184
458.4676	587.7478
458.6319	594.5107
458.7961	609.3055
458.9604	616.2023
459.1246	618.66
459.2888	616.614
459.4531	588.6132
459.6173	602.4961
459.7815	588.5173
459.9457	591.2302
460.11	600.5663
460.2741	604.6073
460.4384	611.787
460.6025	615.0878
460.7667	634.3409
460.9309	644.2085
461.0951	638.2101
461.2592	627.6548
461.4234	619.0082
461.5876	622.2781
461.7517	636.8849
461.9159	623.4995
462.08	628.3423
462.2441	631.8755
462.4082	630.4872
462.5724	640.9412
462.7365	638.0669
462.9006	638.7529
463.0647	637.0216
463.2288	645.6511
463.3929	642.1268
463.557	638.4169
463.721	631.8894
463.8851	632.3588
464.0492	634.6682
464.2132	631.5048
464.3773	630.8996
464.5414	625.3286
464.7054	618.1887
464.8694	620.3738
465.0334	629.3801
465.1975	644.264
465.3615	640.3466
465.5255	639.3056
465.6895	642.7033
465.8535	664.793
466.0175	670.8708
466.1815	668.0154
466.3455	644.0197
466.5095	622.8476
466.6734	600.326
466.8374	592.9321
467.0014	613.0753
467.1653	643.7825
467.3293	661.7756
467.4932	656.9155
467.6571	664.5911
467.8211	655.3999
467.985	649.2621
468.1489	647.7717
468.3128	651.6966
468.4767	671.0445
468.6406	674.2801
468.8045	660.2791
468.9684	661.8848
469.1323	667.899
469.2962	670.7776
469.46	669.3417
469.6239	667.2255
469.7878	655.8647
469.9516	642.3482
470.1154	635.9858
470.2793	619.948
470.4431	625.4478
470.607	643.1892
470.7708	625.4185
470.9346	637.738
471.0984	653.7118
471.2622	660.5085
471.426	664.4704
471.5898	657.9968
471.7536	676.4459
471.9174	700.6394
472.0811	699.8633
472.2449	690.9966
472.4087	693.3342
472.5724	694.7394
472.7362	668.9547
472.8999	642.1681
473.0637	643.7131
473.2274	657.5546
473.3911	682.5546
473.5548	679.0941
473.7185	659.4952
473.8822	669.932
474.0459	667.3433
474.2096	673.9777
474.3733	687.0118
474.537	693.7874
474.7007	690.0194
474.8643	691.735
475.028	693.4584
475.1917	687.3763
475.3553	676.4203
475.519	671.9479
475.6826	671.9476
475.8463	682.5671
476.0099	680.8176
476.1735	670.0058
476.3371	665.1535
476.5007	642.4169
476.6643	646.9177
476.8279	654.5657
476.9915	667.5384
477.1551	686.7385
477.3187	677.2034
477.4823	679.7124
477.6458	697.9413
477.8094	706.8816
477.9729	704.2413
478.1365	706.6166
478.3	688.307
478.4636	668.1971
478.6271	667.0443
478.7906	668.7785
478.9541	669.4093
479.1176	668.854
479.2812	681.2767
479.4447	704.2031
479.6082	717.7545
479.7716	703.2808
479.9351	688.936
480.0986	692.981
480.2621	696.4799
480.4255	696.0627
480.589	692.428
480.7524	687.8051
480.9159	676.6229
481.0793	674.8781
481.2428	686.1772
481.4062	693.256
481.5696	708.3918
481.733	708.6585
481.8964	713.4952
482.0598	709.562
482.2232	706.306
482.3866	680.756
482.55	687.6271
482.7134	701.5856
482.8768	702.5974
483.0401	701.5273
483.2035	696.9468
483.3668	697.6153
483.5302	693.5221
483.6935	683.977
483.8568	685.1882
484.0202	675.4199
484.1835	671.3787
484.3468	676.2162
484.5101	687.5701
484.6734	681.5146
484.8367	682.6052
485	689.5178
485.1633	689.4072
485.3266	684.243
485.4899	665.792
485.6531	632.5643
485.8164	602.1592
485.9796	559.8845
486.1429	514.9512
486.3061	521.9286
486.4694	567.7358
486.6326	623.0811
486.7958	648.0306
486.959	639.1207
487.1223	634.2609
487.2855	623.2694
487.4486	641.4931
487.6118	655.1387
487.775	680.504
487.9382	694.1243
488.1014	699.9058
488.2646	701.9614
488.4277	682.3964
488.5909	659.7914
488.754	656.7455
488.9171	642.3124
489.0803	639.4287
489.2434	651.9645
489.4066	695.7048
489.5697	729.1883
489.7328	736.5044
489.8959	731.7406
490.059	721.6407
490.2221	711.7644
490.3852	712.6366
490.5482	723.8546
490.7113	710.3654
490.8744	710.8824
491.0374	686.2809
491.2005	675.2883
491.3636	687.4176
491.5266	704.8123
491.6896	692.526
491.8527	656.009
492.0157	623.8961
492.1787	628.1526
492.3417	648.4825
492.5047	670.2759
492.6677	685.4365
492.8307	701.5585
492.9937	716.0156
493.1567	715.5402
493.3196	705.8036
493.4826	678.6412
493.6456	672.2783
493.8085	671.1986
493.9715	668.0056
494.1344	691.0627
494.2974	715.4086
494.4603	720.9713
494.6232	718.3162
494.7861	719.0287
494.949	720.6985
495.1119	731.7936
495.2748	724.447
495.4377	723.2268
495.6006	699.0283
495.7635	674.4634
495.9264	680.7676
496.0892	697.503
496.2521	724.6212
496.4149	732.804
496.5778	723.1007
496.7407	708.2197
496.9035	711.9595
497.0663	714.6165
497.2291	727.3524
497.3919	731.1418
497.5547	735.1152
497.7176	730.3756
497.8804	714.5447
498.0432	691.5086
498.2059	673.9043
498.3687	652.9551
498.5315	650.8141
498.6942	694.9786
498.857	716.4247
499.0198	717.0435
499.1825	714.7756
499.3452	722.5948
499.508	731.6649
499.6707	738.6194
499.8334	729.4379
499.9962	710.1614
500.1589	700.0862
500.3216	700.3494
500.4843	685.9278
500.6469	676.6525
500.8096	683.3836
500.9723	710.7698
501.135	710.6391
501.2976	687.7365
501.4603	675.3373
501.623	670.2617
501.7856	673.6808
501.9482	679.8112
502.1109	697.5474
502.2735	709.2595
502.4361	701.6526
502.5987	711.2732
502.7614	707.7615
502.924	719.2557
503.0865	740.892
503.2491	756.0369
503.4117	748.7222
503.5743	725.7261
503.7368	709.9368
503.8994	685.222
504.062	659.8904
504.2245	673.2577
504.3871	705.1337
504.5496	747.1296
504.7121	745.0829
504.8746	721.5033
505.0372	714.5407
505.1997	727.7534
505.3622	752.6805
505.5247	766.5679
505.6872	766.6725
505.8497	767.7828
506.0121	780.853
506.1746	787.3706
506.3371	765.2238
506.4995	745.2686
506.662	733.3282
506.8244	731.5879
506.9869	743.2548
507.1493	738.171
507.3117	735.9015
507.4742	738.5617
507.6366	734.2263
507.799	724.4293
507.9614	704.9097
508.1238	696.0739
508.2862	702.1788
508.4485	716.7885
508.6109	747.3785
508.7733	760.9886
508.9357	762.3137
509.098	749.3934
509.2604	747.9619
509.4227	755.7168
509.5851	744.1198
509.7474	717.2866
509.9097	694.4557
510.072	711.7574
510.2343	733.698
510.3966	740.0245
510.5589	732.3103
510.7212	725.4583
510.8835	717.0809
511.0458	711.7643
511.2081	736.1833
511.3703	742.014
511.5326	752.7709
511.6949	749.6057
511.8571	755.2847
512.0193	752.7749
512.1816	734.1655
512.3438	718.0936
512.506	697.6533
512.6682	696.6298
512.8304	696.5657
512.9926	706.0379
513.1548	702.7581
513.317	718.1863
513.4792	720.0504
513.6414	713.6424
513.8035	682.7427
513.9657	676.4265
514.1279	682.9
514.29	691.1951
514.4521	694.0681
514.6143	685.2653
514.7764	695.2074
514.9385	702.3954
515.1006	702.1988
515.2628	700.7808
515.4249	707.8456
515.587	700.4064
515.7491	712.1861
515.9111	723.4851
516.0732	711.5524
516.2353	695.7198
