SPECTRUM DATA FILE
SpectrumCount:	1
PixelCount:	3648
UserName:	ToughBook User
SampleName:	
LightSource:	
Comments:	
DeviceName:	Qwave
DeviceManufacturer:	Broadcom
DeviceSerialNo:	11311

Name:	last spectrum
Date:	2024-05-02T14:35:15.2503548+02:00
ExposureTime:	0.02
TemporalAvg:	1
IntensityUnit:	normalizedCounts
CCDLoadLevel:	0.1500628
Temperature:	31.82086
DiagramColor:	200
ProcessingSteps:	335

Wavelength [nm]	Intensity1
334.421	38.06194
334.5891	39.44467
334.7573	32.74342
334.9254	37.65774
335.0935	36.71332
335.2616	33.48797
335.4297	32.78139
335.5978	31.44902
335.7659	34.61782
335.934	31.3787
336.1021	29.62814
336.2701	32.07608
336.4382	34.13627
336.6063	38.95837
336.7744	35.48602
336.9424	32.04085
337.1105	36.30768
337.2785	35.05123
337.4466	35.88489
337.6146	38.44264
337.7827	40.11737
337.9507	38.15407
338.1187	34.73161
338.2867	36.08578
338.4548	37.29148
338.6228	34.23264
338.7908	33.87572
338.9588	36.7814
339.1268	36.53825
339.2948	39.64117
339.4628	43.49042
339.6308	40.19592
339.7988	40.07438
339.9667	34.82614
340.1347	37.1585
340.3027	39.97321
340.4707	39.92269
340.6386	37.96213
340.8066	32.50459
340.9745	34.31852
341.1425	36.02636
341.3104	35.39427
341.4784	38.87656
341.6463	39.04694
341.8142	39.70904
341.9821	38.5416
342.1501	43.8359
342.318	40.52959
342.4859	40.53617
342.6538	40.66788
342.8217	41.68266
342.9896	44.02577
343.1575	47.48025
343.3254	36.40253
343.4933	34.63725
343.6612	38.01555
343.829	39.47765
343.9969	37.98961
344.1648	34.61787
344.3326	31.57195
344.5005	38.3612
344.6683	37.14439
344.8362	42.68948
345.004	47.56527
345.1719	44.08086
345.3397	46.91898
345.5075	45.14028
345.6754	41.99999
345.8432	46.94941
346.011	39.19812
346.1788	42.24428
346.3466	44.44009
346.5144	46.21125
346.6822	47.90944
346.85	52.76303
347.0178	47.06269
347.1856	41.71883
347.3534	43.73264
347.5211	41.52148
347.6889	48.05295
347.8567	41.72902
348.0244	42.12349
348.1922	44.58612
348.3599	43.9337
348.5277	50.07969
348.6954	45.81922
348.8632	43.89713
349.0309	38.95287
349.1986	38.03008
349.3663	41.2382
349.5341	39.43304
349.7018	46.09291
349.8695	49.26701
350.0372	46.35247
350.2049	45.2759
350.3726	51.62518
350.5403	49.75243
350.7079	50.70159
350.8756	45.84077
351.0433	43.03418
351.211	44.02404
351.3786	47.68649
351.5463	47.73215
351.714	54.17216
351.8816	53.01746
352.0493	50.76147
352.2169	47.50299
352.3846	42.05497
352.5522	45.97871
352.7198	48.81654
352.8875	47.72245
353.0551	53.91543
353.2227	56.71836
353.3903	59.14302
353.5579	59.65253
353.7255	55.61713
353.8931	57.25208
354.0607	56.06969
354.2283	53.87963
354.3958	60.42132
354.5634	58.12271
354.731	57.9217
354.8986	58.05033
355.0661	52.6859
355.2337	51.14257
355.4012	52.53506
355.5688	55.85104
355.7363	52.61973
355.9039	55.19494
356.0714	52.40082
356.239	55.05886
356.4065	47.17955
356.574	47.79172
356.7415	44.28957
356.909	44.18044
357.0765	43.1522
357.244	48.18711
357.4115	46.9122
357.579	51.96487
357.7465	51.50248
357.914	42.76191
358.0815	38.1335
358.249	39.7545
358.4164	45.21595
358.5839	49.25967
358.7513	45.55684
358.9188	48.11448
359.0862	54.57552
359.2537	57.74997
359.4211	60.29917
359.5886	59.86185
359.756	61.73245
359.9234	64.2099
360.0909	64.88749
360.2583	60.889
360.4257	55.51894
360.5931	50.35737
360.7605	50.09814
360.9279	55.86634
361.0953	49.40441
361.2627	59.95498
361.4301	56.97942
361.5974	54.66423
361.7648	58.12094
361.9322	52.51291
362.0995	54.16237
362.2669	62.66231
362.4343	65.21845
362.6016	70.14999
362.769	68.3369
362.9363	62.90881
363.1036	62.22482
363.271	63.20995
363.4383	63.1821
363.6056	65.68945
363.7729	66.39512
363.9402	65.99323
364.1075	72.02814
364.2748	64.83234
364.4421	65.37788
364.6094	60.13968
364.7767	57.67405
364.944	57.95684
365.1113	63.96932
365.2786	75.83941
365.4458	75.68913
365.6131	79.49315
365.7803	79.50308
365.9476	83.20058
366.1148	75.65179
366.2821	77.71143
366.4493	73.71596
366.6166	78.21815
366.7838	76.10023
366.951	73.53779
367.1182	81.71583
367.2855	78.35099
367.4527	77.00407
367.6199	74.15299
367.7871	70.53795
367.9543	70.1097
368.1215	71.29937
368.2886	74.91169
368.4558	77.7177
368.623	75.29466
368.7902	76.59673
368.9573	81.19122
369.1245	84.36781
369.2917	83.60227
369.4588	82.35146
369.6259	87.06966
369.7931	86.35399
369.9602	87.80898
370.1274	86.43094
370.2945	81.07077
370.4616	78.66074
370.6287	72.38689
370.7958	73.77748
370.963	83.63291
371.1301	88.40821
371.2971	97.59083
371.4643	96.69355
371.6313	91.16847
371.7984	78.04864
371.9655	68.61799
372.1326	68.41609
372.2997	74.38534
372.4667	84.0116
372.6338	87.84898
372.8008	82.9871
372.9679	82.75452
373.1349	83.35713
373.3019	70.15685
373.469	61.06175
373.636	65.68809
373.803	75.63214
373.9701	81.02027
374.1371	85.77019
374.3041	77.36214
374.4711	70.86758
374.6381	70.12306
374.8051	65.06699
374.9721	66.16202
375.1391	79.17115
375.3061	91.82665
375.473	94.94305
375.64	90.28404
375.8069	82.92437
375.9739	81.29033
376.1409	88.89806
376.3078	90.20219
376.4748	85.77043
376.6417	90.39941
376.8087	94.33447
376.9756	97.27516
377.1425	97.44881
377.3094	101.8767
377.4763	108.4301
377.6432	110.8132
377.8102	108.6968
377.9771	112.85
378.144	115.1986
378.3109	110.4391
378.4777	105.2674
378.6446	98.06304
378.8115	94.95795
378.9784	96.9609
379.1452	94.48478
379.3121	92.39137
379.4789	88.07654
379.6458	79.44305
379.8127	88.4549
379.9795	95.4369
380.1463	104.1024
380.3131	110.4056
380.48	108.5431
380.6468	108.6025
380.8136	111.6901
380.9804	109.7876
381.1472	108.8065
381.314	99.33053
381.4808	88.66309
381.6476	84.53273
381.8144	89.87486
381.9812	84.2262
382.148	82.46528
382.3147	83.2533
382.4815	75.50822
382.6483	71.22166
382.815	74.89671
382.9818	79.60313
383.1485	77.72479
383.3153	76.03423
383.482	74.32376
383.6487	72.8906
383.8155	77.45836
383.9822	74.25856
384.1489	91.62034
384.3156	104
384.4823	112.5884
384.649	105.6133
384.8157	113.3968
384.9824	108.6722
385.1491	106.5008
385.3158	108.9598
385.4825	110.0148
385.6491	100.4963
385.8158	98.84827
385.9825	99.107
386.1491	103.3966
386.3157	106.339
386.4824	111.5665
386.649	116.218
386.8157	100.1204
386.9823	95.6089
387.1489	97.72959
387.3156	99.61223
387.4821	102.6492
387.6488	105.0499
387.8154	106.2827
387.982	103.5106
388.1486	104.492
388.3152	107.5872
388.4818	110.3211
388.6483	103.6742
388.8149	101.6504
388.9815	107.925
389.148	117.4181
389.3146	120.3495
389.4811	133.4188
389.6477	140.8829
389.8142	134.4839
389.9808	137.1964
390.1473	131.6519
390.3138	135.7899
390.4804	133.5814
390.6469	125.7981
390.8134	133.7774
390.9799	145.6079
391.1464	147.1148
391.3129	147.5024
391.4794	146.2185
391.6459	145.5594
391.8124	135.8149
391.9789	127.5346
392.1453	124.1847
392.3118	124.5352
392.4782	115.7204
392.6447	109.9521
392.8112	93.64056
392.9776	77.32111
393.144	66.13015
393.3105	60.78414
393.4769	64.86366
393.6433	75.82927
393.8098	95.16022
393.9762	108.3023
394.1426	118.9247
394.309	120.424
394.4754	128.7378
394.6418	137.9102
394.8082	146.2918
394.9746	152.6766
395.141	153.1224
395.3073	154.1033
395.4737	153.9963
395.64	153.0609
395.8064	160.8004
395.9728	140.7147
396.1391	126.2385
396.3055	114.2994
396.4718	96.89164
396.6381	78.76588
396.8045	75.80526
396.9708	73.4206
397.1371	81.96971
397.3034	105.084
397.4697	122.2383
397.636	144.4969
397.8023	164.2413
397.9686	182.2842
398.1349	179.9475
398.3012	177.5873
398.4675	181.9263
398.6337	182.2457
398.8	187.9023
398.9662	194.1926
399.1325	207.7315
399.2988	206.8273
399.465	199.8287
399.6313	198.8644
399.7975	201.225
399.9637	207.426
400.1299	209.8081
400.2961	212.2566
400.4624	200.1715
400.6286	195.5924
400.7948	203.4116
400.961	213.8797
401.1272	222.0552
401.2934	218.089
401.4595	220.083
401.6257	218.5617
401.7919	226.7904
401.9581	225.0321
402.1242	220.157
402.2904	216.6567
402.4565	224.8907
402.6227	236.4331
402.7888	228.289
402.955	207.1989
403.1211	197.7311
403.2872	207.6846
403.4533	218.2197
403.6194	229.0364
403.7856	235.6328
403.9517	236.9428
404.1177	233.4793
404.2838	219.6113
404.4499	201.0429
404.616	198.0579
404.7821	204.5185
404.9482	221.8406
405.1142	239.0636
405.2803	242.2234
405.4464	230.3477
405.6124	222.5326
405.7784	215.9155
405.9445	222.2073
406.1105	222.6506
406.2766	211.9475
406.4426	206.3984
406.6086	220.7225
406.7746	232.6281
406.9406	242.2043
407.1066	234.7762
407.2726	231.5203
407.4386	227.3427
407.6046	222.8612
407.7706	224.9941
407.9366	236.0714
408.1025	249.4162
408.2685	248.8461
408.4344	248.222
408.6004	255.3821
408.7664	265.8294
408.9323	278.8018
409.0983	272.3258
409.2642	268.0418
409.4301	267.3931
409.596	246.2519
409.762	243.1603
409.9279	233.4157
410.0938	213.415
410.2597	210.9976
410.4256	226.8264
410.5915	244.4828
410.7574	255.9682
410.9232	255.9108
411.0891	267.3922
411.255	270.3011
411.4209	282.1374
411.5867	281.7283
411.7526	280.2975
411.9184	280.1112
412.0843	272.5597
412.2501	269.2287
412.4159	283.2263
412.5818	279.9472
412.7476	273.957
412.9134	268.9183
413.0792	258.1094
413.245	263.7861
413.4108	261.8024
413.5766	281.9254
413.7424	289.23
413.9082	293.7719
414.074	284.5271
414.2397	276.1379
414.4055	271.0468
414.5713	275.9205
414.737	285.3325
414.9028	284.0813
415.0685	271.8839
415.2343	277.4464
415.4	267.7593
415.5658	264.9839
415.7315	268.485
415.8972	283.7542
416.0629	287.7116
416.2286	294.7551
416.3943	297.3985
416.56	303.999
416.7257	295.218
416.8914	286.7492
417.0571	282.1073
417.2228	268.8286
417.3884	262.2215
417.5541	269.797
417.7198	282.7478
417.8854	288.0695
418.0511	289.4955
418.2167	291.5434
418.3824	294.334
418.548	291.9807
418.7136	280.374
418.8792	279.7421
419.0449	296.4534
419.2105	307.3261
419.3761	309.3504
419.5417	304.8741
419.7073	285.932
419.8729	278.6506
420.0385	281.7505
420.204	285.6079
420.3696	302.0602
420.5352	312.7096
420.7007	322.6502
420.8663	323.8757
421.0319	329.8791
421.1974	323.2528
421.3629	326.5851
421.5285	316.2511
421.694	312.0773
421.8595	315.6837
422.0251	330.0878
422.1906	340.2649
422.3561	311.9077
422.5216	281.0915
422.6871	267.8158
422.8526	279.2324
423.0181	310.4764
423.1835	331.9563
423.349	325.7392
423.5145	310.9388
423.68	315.3317
423.8454	319.4335
424.0109	320.3244
424.1763	338.2781
424.3418	341.3272
424.5072	336.3563
424.6726	321.2595
424.838	308.4219
425.0035	298.7733
425.1689	308.9195
425.3343	320.6111
425.4997	330.4556
425.6651	325.3215
425.8305	323.1368
425.9959	306.831
426.1613	309.8736
426.3267	327.3039
426.492	347.2412
426.6574	354.3589
426.8228	333.4046
426.9881	303.6172
427.1534	288.9061
427.3188	283.7335
427.4841	300.1255
427.6495	323.2875
427.8148	339.2867
427.9801	334.2497
428.1454	325.8184
428.3107	328.8806
428.476	324.332
428.6414	316.364
428.8066	301.9799
428.9719	297.6119
429.1372	307.9272
429.3025	322.1934
429.4678	316.991
429.633	300.3725
429.7983	278.4239
429.9636	252.3338
430.1288	242.6832
430.294	243.9832
430.4593	251.8478
430.6245	239.0171
430.7897	237.1954
430.955	230.172
431.1202	247.1299
431.2854	280.3354
431.4506	316.8779
431.6158	363.5381
431.781	388.3657
431.9462	392.1937
432.1114	374.4129
432.2766	339.2279
432.4417	306.3127
432.6069	304.3134
432.772	336.4217
432.9372	366.7393
433.1024	381.8206
433.2675	389.9394
433.4326	380.0539
433.5977	364.1316
433.7629	328.794
433.928	300.3144
434.0931	296.0982
434.2582	312.8665
434.4233	345.3126
434.5884	365.3639
434.7535	384.5505
434.9186	390.1114
435.0837	380.8508
435.2488	367.1243
435.4138	369.7681
435.5789	381.2925
435.744	395.2783
435.909	398.8693
436.0741	406.4167
436.2391	421.7693
436.4042	425.6548
436.5692	418.1475
436.7342	416.9475
436.8992	403.2119
437.0643	403.755
437.2293	397.2045
437.3943	391.9735
437.5593	384.2322
437.7243	401.5438
437.8893	412.916
438.0542	400.776
438.2192	360.681
438.3842	331.0451
438.5491	334.5218
438.7141	358.5705
438.8791	385.8586
439.044	391.985
439.209	390.2241
439.3739	401.9536
439.5388	412.5564
439.7037	421.8649
439.8687	418.3568
440.0336	413.0046
440.1985	401.2753
440.3634	386.2974
440.5283	382.2676
440.6932	393.1
440.8581	407.5999
441.0229	432.0981
441.1878	453.6393
441.3527	450.4977
441.5175	435.7743
441.6824	424.7063
441.8472	437.9401
442.0121	461.1738
442.1769	461.98
442.3418	448.6895
442.5066	441.2435
442.6714	438.126
442.8362	451.4504
443.001	460.8814
443.1659	455.0228
443.3307	441.8922
443.4955	433.6799
443.6602	437.8877
443.825	458.591
443.9898	474.4534
444.1546	452.0855
444.3193	443.491
444.4841	468.8034
444.6488	491.0137
444.8136	490.6678
444.9783	489.8336
445.1431	472.6681
445.3078	460.5894
445.4725	436.8329
445.6372	423.4716
445.802	428.5339
445.9667	435.5785
446.1314	438.3074
446.2961	449.2469
446.4608	463.7237
446.6255	468.8523
446.7901	460.7379
446.9548	470.319
447.1195	486.2258
447.2841	499.4129
447.4488	506.7134
447.6134	508.4949
447.7781	507.2397
447.9427	491.6104
448.1074	477.4724
448.272	479.5381
448.4366	500.6837
448.6012	513.4377
448.7658	512.4221
448.9305	491.9124
449.095	504.8527
449.2596	504.8619
449.4242	507.5302
449.5888	506.6171
449.7534	507.1502
449.9179	519.3964
450.0825	526.2098
450.2471	533.1282
450.4116	557.6453
450.5762	565.9391
450.7407	554.9907
450.9052	549.6953
451.0698	559.4069
451.2343	539.2866
451.3988	534.616
451.5633	542.3102
451.7278	542.8567
451.8923	544.9039
452.0568	546.7468
452.2213	536.4151
452.3858	528.348
452.5503	513.5083
452.7148	495.294
452.8792	495.4528
453.0437	482.9044
453.2081	491.049
453.3726	498.0557
453.537	502.7322
453.7015	530.4113
453.8659	541.2726
454.0303	548.0097
454.1947	550.2704
454.3592	541.7744
454.5236	537.5486
454.688	529.6712
454.8524	509.3861
455.0168	513.92
455.1811	527.1422
455.3455	523.6079
455.5099	525.2698
455.6743	531.1565
455.8386	549.7837
456.003	573.4166
456.1673	563.8006
456.3317	548.2322
456.496	537.529
456.6603	546.6046
456.8246	568.3484
456.989	575.2171
457.1533	555.222
457.3176	554.6913
457.4819	556.7875
457.6462	573.2179
457.8105	567.4117
457.9748	539.9316
458.1391	525.892
458.3033	527.1788
458.4676	532.4021
458.6319	545.3672
458.7961	550.1616
458.9604	551.6983
459.1246	551.2363
459.2888	547.7211
459.4531	538.8187
459.6173	530.9244
459.7815	541.9033
459.9457	545.8756
460.11	544.1901
460.2741	550.9717
460.4384	552.6657
460.6025	551.6223
460.7667	566.158
460.9309	573.7079
461.0951	577.783
461.2592	561.658
461.4234	566.7246
461.5876	568.751
461.7517	565.0333
461.9159	569.8969
462.08	579.3779
462.2441	580.9067
462.4082	572.3296
462.5724	575.4545
462.7365	579.2543
462.9006	577.0362
463.0647	581.6622
463.2288	585.7156
463.3929	578.8318
463.557	569.4832
463.721	570.8264
463.8851	567.4796
464.0492	570.6653
464.2132	577.5601
464.3773	567.1921
464.5414	555.9924
464.7054	547.1826
464.8694	552.3959
465.0334	553.6801
465.1975	572.15
465.3615	568.1179
465.5255	565.1667
465.6895	572.1287
465.8535	586.5543
466.0175	599.7726
466.1815	598.6165
466.3455	582.8591
466.5095	551.5272
466.6734	534.6121
466.8374	523.5504
467.0014	542.4759
467.1653	574.187
467.3293	582.0204
467.4932	594.2812
467.6571	601.9186
467.8211	591.0705
467.985	573.9647
468.1489	566.1689
468.3128	580.4678
468.4767	594.9673
468.6406	597.7953
468.8045	590.9066
468.9684	593.796
469.1323	592.3314
469.2962	598.8198
469.46	597.1022
469.6239	599.0198
469.7878	588.4093
469.9516	583.2339
470.1154	574.6376
470.2793	570.389
470.4431	557.3933
470.607	561.5178
470.7708	576.5014
470.9346	578.7497
471.0984	586.4163
471.2622	597.429
471.426	590.7948
471.5898	589.898
471.7536	608.6542
471.9174	623.9837
472.0811	623.6865
472.2449	628.4977
472.4087	641.8154
472.5724	628.104
472.7362	611.6855
472.8999	595.062
473.0637	594.7095
473.2274	593.4492
473.3911	601.4876
473.5548	603.9177
473.7185	598.1166
473.8822	599.9556
474.0459	618.5214
474.2096	616.7307
474.3733	621.0798
474.537	620.2028
474.7007	621.9691
474.8643	628.8748
475.028	619.2648
475.1917	612.9225
475.3553	591.5515
475.519	588.9337
475.6826	601.5524
475.8463	609.4277
476.0099	615.2615
476.1735	600.0967
476.3371	592.1666
476.5007	582.3069
476.6643	575.1996
476.8279	595.3539
476.9915	607.3606
477.1551	613.1709
477.3187	610.6812
477.4823	617.4767
477.6458	632.3613
477.8094	630.6054
477.9729	631.2802
478.1365	625.9504
478.3	617.476
478.4636	603.9772
478.6271	593.2791
478.7906	593.6014
478.9541	593.0612
479.1176	606.8882
479.2812	624.1747
479.4447	635.6519
479.6082	639.4426
479.7716	622.8926
479.9351	614.3427
480.0986	618.0262
480.2621	621.862
480.4255	623.2174
480.589	611.6822
480.7524	603.8676
480.9159	612.1508
481.0793	609.2114
481.2428	610.1521
481.4062	613.4114
481.5696	633.2234
481.733	640.563
481.8964	635.2817
482.0598	633.9326
482.2232	623.6099
482.3866	616.6306
482.55	613.4783
482.7134	621.978
482.8768	626.8315
483.0401	616.0566
483.2035	612.4503
483.3668	613.5292
483.5302	619.627
483.6935	622.3068
483.8568	613.9875
484.0202	607.7886
484.1835	606.2723
484.3468	602.8027
484.5101	621.1206
484.6734	617.4763
484.8367	617.1144
485	618.2311
485.1633	621.0884
485.3266	604.8759
485.4899	585.6509
485.6531	565.1699
485.8164	525.3908
485.9796	483.9265
486.1429	455.9408
486.3061	461.7169
486.4694	512.2299
486.6326	561.0718
486.7958	573.4988
486.959	575.2751
487.1223	560.1605
487.2855	556.4357
487.4486	572.2177
487.6118	595.0255
487.775	605.0057
487.9382	614.7427
488.1014	615.2613
488.2646	629.2694
488.4277	621.5956
488.5909	597.1172
488.754	590.3684
488.9171	578.7776
489.0803	569.9852
489.2434	584.9243
489.4066	607.3955
489.5697	659.5235
489.7328	655.0888
489.8959	641.3116
490.059	644.9368
490.2221	626.9116
490.3852	623.7683
490.5482	619.0046
490.7113	630.8491
490.8744	625.6614
491.0374	604.5543
491.2005	601.3804
491.3636	619.3886
491.5266	631.8958
491.6896	621.2531
491.8527	576.9127
492.0157	547.6193
492.1787	555.41
492.3417	572.0937
492.5047	589.9496
492.6677	614.9726
492.8307	629.8235
492.9937	642.2479
493.1567	641.6584
493.3196	628.0938
493.4826	613.9721
493.6456	608.5659
493.8085	598.5379
493.9715	597.1271
494.1344	621.1616
494.2974	636.079
494.4603	647.5917
494.6232	649.2507
494.7861	653.5251
494.949	652.5699
495.1119	651.2223
495.2748	634.0321
495.4377	635.6446
495.6006	617.4524
495.7635	593.2971
495.9264	596.3112
496.0892	634.0448
496.2521	652.8219
496.4149	653.5929
496.5778	659.2137
496.7407	642.1807
496.9035	624.7342
497.0663	624.6915
497.2291	640.5559
497.3919	651.9273
497.5547	664.3593
497.7176	656.7299
497.8804	644.3231
498.0432	619.6055
498.2059	595.5938
498.3687	585.6022
498.5315	593.1389
498.6942	626.72
498.857	642.631
499.0198	637.0688
499.1825	627.7482
499.3452	634.167
499.508	639.5163
499.6707	631.3618
499.8334	650.0949
499.9962	627.4561
500.1589	622.6994
500.3216	614.5268
500.4843	607.6339
500.6469	598.7811
500.8096	605.197
500.9723	619.2791
501.135	624.5474
501.2976	614.015
501.4603	602.7995
501.623	591.5762
501.7856	590.9216
501.9482	607.2729
502.1109	616.1128
502.2735	622.9373
502.4361	626.3024
502.5987	637.8138
502.7614	640.5172
502.924	640.6941
503.0865	653.5238
503.2491	662.6055
503.4117	651.9294
503.5743	640.3238
503.7368	624.9189
503.8994	611.946
504.062	598.0239
504.2245	592.5968
504.3871	623.7972
504.5496	658.2437
504.7121	661.1003
504.8746	654.0663
505.0372	635.6648
505.1997	643.6998
505.3622	655.014
505.5247	665.6561
505.6872	681.1785
505.8497	676.2423
506.0121	684.6111
506.1746	698.2706
506.3371	678.5255
506.4995	666.889
506.662	644.5618
506.8244	647.473
506.9869	663.0279
507.1493	651.2364
507.3117	649.4479
507.4742	659.5156
507.6366	655.8646
507.799	638.0514
507.9614	625.4559
508.1238	620.9307
508.2862	618.0594
508.4485	637.0028
508.6109	651.4199
508.7733	665.6908
508.9357	665.6869
509.098	662.6646
509.2604	668.7819
509.4227	677.2065
509.5851	666.1797
509.7474	638.2894
509.9097	619.6052
510.072	625.8853
510.2343	651.1638
510.3966	659.5438
510.5589	643.0725
510.7212	635.5217
510.8835	637.2906
511.0458	634.5118
511.2081	647.3698
511.3703	664.3082
511.5326	667.0883
511.6949	661.7054
511.8571	669.8877
512.0193	657.4325
512.1816	651.8855
512.3438	619.22
512.506	613.8824
512.6682	606.8389
512.8304	611.6251
512.9926	622.8411
513.1548	627.222
513.317	624.9336
513.4792	628.8046
513.6414	619.4496
513.8035	619.4095
513.9657	604.7069
514.1279	612.9324
514.29	617.4825
514.4521	611.0293
514.6143	620.8301
514.7764	618.7695
514.9385	619.8219
515.1006	621.2251
515.2628	616.9297
515.4249	631.556
515.587	630.9399
515.7491	641.0283
515.9111	645.7918
516.0732	645.8745
516.2353	628.1232
516.3973	591.2463
