SPECTRUM DATA FILE
SpectrumCount:	1
PixelCount:	3648
UserName:	ToughBook User
SampleName:	
LightSource:	
Comments:	
DeviceName:	Qwave
DeviceManufacturer:	Broadcom
DeviceSerialNo:	11311

Name:	last spectrum
Date:	2024-05-02T14:51:36.4333752+02:00
ExposureTime:	0.02
TemporalAvg:	1
IntensityUnit:	normalizedCounts
CCDLoadLevel:	0.07428069
Temperature:	32.81036
DiagramColor:	200
ProcessingSteps:	335

Wavelength [nm]	Intensity1
334.421	22.34539
334.5891	22.26733
334.7573	16.09993
334.9254	17.19258
335.0935	18.64128
335.2616	19.43006
335.4297	21.15026
335.5978	24.20387
335.7659	21.65018
335.934	25.10118
336.1021	23.40771
336.2701	19.37902
336.4382	17.68133
336.6063	22.01112
336.7744	15.44586
336.9424	16.33786
337.1105	18.99271
337.2785	22.69736
337.4466	21.44094
337.6146	17.67805
337.7827	16.76933
337.9507	21.21162
338.1187	21.02098
338.2867	14.44196
338.4548	16.08493
338.6228	18.69182
338.7908	20.54741
338.9588	15.90194
339.1268	15.49819
339.2948	18.62796
339.4628	18.24878
339.6308	18.68815
339.7988	17.144
339.9667	17.6342
340.1347	17.39329
340.3027	17.24557
340.4707	18.66347
340.6386	18.06956
340.8066	19.42183
340.9745	16.28076
341.1425	18.11402
341.3104	13.95305
341.4784	18.01409
341.6463	20.85509
341.8142	16.32079
341.9821	21.19821
342.1501	19.97392
342.318	20.57852
342.4859	19.92003
342.6538	20.3525
342.8217	19.1601
342.9896	22.11763
343.1575	23.70399
343.3254	21.00479
343.4933	22.5428
343.6612	23.87835
343.829	17.88156
343.9969	20.34841
344.1648	23.52827
344.3326	17.13645
344.5005	21.69018
344.6683	23.52486
344.8362	19.84944
345.004	19.45243
345.1719	19.76156
345.3397	20.77913
345.5075	23.03375
345.6754	21.10289
345.8432	21.10172
346.011	19.86528
346.1788	21.06247
346.3466	18.0865
346.5144	18.53684
346.6822	21.61073
346.85	28.16693
347.0178	19.25662
347.1856	22.38359
347.3534	20.66615
347.5211	20.08979
347.6889	19.44932
347.8567	18.37593
348.0244	19.96665
348.1922	16.65575
348.3599	21.70704
348.5277	22.59448
348.6954	20.04582
348.8632	17.7934
349.0309	20.44656
349.1986	18.08587
349.3663	17.59981
349.5341	17.92654
349.7018	18.49361
349.8695	19.33125
350.0372	18.60468
350.2049	18.06018
350.3726	16.92917
350.5403	22.2304
350.7079	23.15016
350.8756	20.13569
351.0433	19.47555
351.211	18.55778
351.3786	17.96762
351.5463	18.88873
351.714	21.18863
351.8816	27.62828
352.0493	16.98532
352.2169	18.8301
352.3846	20.00993
352.5522	22.23405
352.7198	25.45224
352.8875	21.21136
353.0551	20.84135
353.2227	23.79588
353.3903	23.38345
353.5579	23.0707
353.7255	21.05382
353.8931	21.05545
354.0607	21.17941
354.2283	21.41446
354.3958	22.674
354.5634	18.42715
354.731	23.52378
354.8986	20.65561
355.0661	20.07028
355.2337	26.99649
355.4012	25.68146
355.5688	25.86192
355.7363	23.901
355.9039	19.67294
356.0714	22.41087
356.239	22.28306
356.4065	21.93423
356.574	23.87747
356.7415	21.41947
356.909	19.07785
357.0765	20.9031
357.244	21.21888
357.4115	23.82136
357.579	23.34619
357.7465	24.53551
357.914	21.44996
358.0815	19.49678
358.249	23.2891
358.4164	21.92243
358.5839	22.62309
358.7513	24.72347
358.9188	21.46982
359.0862	19.15566
359.2537	23.16319
359.4211	23.12088
359.5886	24.86757
359.756	28.01849
359.9234	21.68921
360.0909	23.17166
360.2583	24.44378
360.4257	19.49704
360.5931	21.17794
360.7605	22.09772
360.9279	22.44865
361.0953	23.69483
361.2627	27.70327
361.4301	25.58193
361.5974	20.89905
361.7648	21.04088
361.9322	21.98625
362.0995	25.59135
362.2669	26.03667
362.4343	27.49183
362.6016	23.95235
362.769	25.02063
362.9363	25.47895
363.1036	26.21384
363.271	28.90584
363.4383	23.90375
363.6056	26.15471
363.7729	25.0705
363.9402	25.01868
364.1075	23.22156
364.2748	23.07328
364.4421	25.87438
364.6094	30.93306
364.7767	23.74535
364.944	27.02852
365.1113	26.63334
365.2786	22.11988
365.4458	27.02984
365.6131	24.25886
365.7803	21.27534
365.9476	29.41192
366.1148	27.17503
366.2821	27.94572
366.4493	25.76415
366.6166	30.48869
366.7838	28.03024
366.951	24.86495
367.1182	26.15712
367.2855	27.95617
367.4527	28.7233
367.6199	26.69621
367.7871	23.03902
367.9543	25.35678
368.1215	23.46114
368.2886	23.22851
368.4558	27.42564
368.623	22.69244
368.7902	28.17234
368.9573	25.36715
369.1245	24.4986
369.2917	23.77022
369.4588	26.4364
369.6259	24.8247
369.7931	28.91043
369.9602	22.7793
370.1274	26.90356
370.2945	27.34537
370.4616	31.1336
370.6287	26.02499
370.7958	23.17321
370.963	26.93954
371.1301	27.08524
371.2971	28.2369
371.4643	29.26266
371.6313	27.4259
371.7984	26.78632
371.9655	27.10142
372.1326	28.60287
372.2997	27.7114
372.4667	30.91022
372.6338	31.02999
372.8008	31.85449
372.9679	29.03815
373.1349	30.45469
373.3019	30.0127
373.469	30.24586
373.636	30.71949
373.803	27.34662
373.9701	30.20919
374.1371	29.11893
374.3041	33.96488
374.4711	29.13316
374.6381	29.1983
374.8051	31.58425
374.9721	35.31305
375.1391	31.59665
375.3061	27.92607
375.473	28.75875
375.64	26.54614
375.8069	29.95491
375.9739	36.28827
376.1409	30.87014
376.3078	30.71159
376.4748	24.92606
376.6417	31.11906
376.8087	31.81783
376.9756	31.1944
377.1425	30.84814
377.3094	27.73388
377.4763	24.38673
377.6432	30.18012
377.8102	30.92762
377.9771	33.80696
378.144	32.13468
378.3109	29.07644
378.4777	29.16652
378.6446	32.49615
378.8115	31.15677
378.9784	31.00063
379.1452	35.30625
379.3121	31.68395
379.4789	33.82327
379.6458	25.47146
379.8127	28.80655
379.9795	26.70259
380.1463	27.76554
380.3131	31.13812
380.48	33.01785
380.6468	31.61735
380.8136	26.41363
380.9804	21.71843
381.1472	29.51455
381.314	25.74165
381.4808	23.85524
381.6476	22.4497
381.8144	23.87321
381.9812	25.7446
382.148	28.82591
382.3147	25.48238
382.4815	26.21845
382.6483	29.64257
382.815	32.57659
382.9818	30.72923
383.1485	29.0895
383.3153	27.18346
383.482	28.21776
383.6487	31.28146
383.8155	30.10898
383.9822	31.24495
384.1489	32.02155
384.3156	32.97174
384.4823	32.9222
384.649	31.32474
384.8157	38.48457
384.9824	33.96883
385.1491	32.32868
385.3158	33.73475
385.4825	34.98482
385.6491	35.55001
385.8158	34.92351
385.9825	33.30361
386.1491	31.51313
386.3157	34.17952
386.4824	34.91489
386.649	36.64033
386.8157	35.53093
386.9823	34.36796
387.1489	32.08255
387.3156	34.18441
387.4821	35.18024
387.6488	40.12839
387.8154	32.08527
387.982	29.0045
388.1486	30.06728
388.3152	34.11214
388.4818	32.91413
388.6483	34.87725
388.8149	36.88168
388.9815	30.04215
389.148	29.15594
389.3146	34.1793
389.4811	37.61387
389.6477	34.48206
389.8142	36.32767
389.9808	37.69526
390.1473	32.30134
390.3138	30.22492
390.4804	35.36357
390.6469	36.03917
390.8134	40.93121
390.9799	40.76716
391.1464	40.73353
391.3129	38.98227
391.4794	38.15129
391.6459	36.43266
391.8124	30.65732
391.9789	36.91584
392.1453	33.54221
392.3118	34.56144
392.4782	34.41522
392.6447	35.95541
392.8112	32.04992
392.9776	29.92048
393.144	31.47561
393.3105	33.06017
393.4769	28.12386
393.6433	31.90873
393.8098	33.28714
393.9762	37.07152
394.1426	31.18706
394.309	34.4575
394.4754	37.13792
394.6418	33.78047
394.8082	35.79814
394.9746	38.46939
395.141	41.23188
395.3073	43.72549
395.4737	40.13411
395.64	42.30221
395.8064	43.28411
395.9728	38.01234
396.1391	37.2562
396.3055	37.66815
396.4718	39.02621
396.6381	38.47179
396.8045	35.48008
396.9708	37.91745
397.1371	32.96132
397.3034	40.07082
397.4697	45.34481
397.636	39.61444
397.8023	41.55984
397.9686	44.16377
398.1349	46.58611
398.3012	44.30505
398.4675	42.20902
398.6337	44.00972
398.8	46.02364
398.9662	47.8488
399.1325	44.74989
399.2988	46.48502
399.465	48.33012
399.6313	40.37853
399.7975	43.49494
399.9637	45.90289
400.1299	46.49997
400.2961	46.34104
400.4624	41.73068
400.6286	45.42307
400.7948	46.4271
400.961	47.61405
401.1272	46.04951
401.2934	49.58514
401.4595	48.67438
401.6257	48.5161
401.7919	48.89379
401.9581	50.77851
402.1242	48.99176
402.2904	49.69409
402.4565	47.2326
402.6227	44.59744
402.7888	50.39055
402.955	51.28308
403.1211	47.03744
403.2872	46.27524
403.4533	44.06763
403.6194	45.69231
403.7856	49.45163
403.9517	46.90371
404.1177	44.41146
404.2838	47.47205
404.4499	42.9085
404.616	46.21231
404.7821	44.0895
404.9482	45.27087
405.1142	48.27209
405.2803	50.64425
405.4464	52.10522
405.6124	52.18658
405.7784	48.84032
405.9445	53.04125
406.1105	47.75484
406.2766	46.50805
406.4426	48.02786
406.6086	50.61459
406.7746	53.30454
406.9406	54.32512
407.1066	51.00296
407.2726	53.23066
407.4386	54.4264
407.6046	50.134
407.7706	51.91395
407.9366	55.86518
408.1025	56.79068
408.2685	55.10539
408.4344	59.61393
408.6004	56.57408
408.7664	59.11403
408.9323	57.0716
409.0983	57.45654
409.2642	60.80558
409.4301	60.25878
409.596	56.20942
409.762	59.17614
409.9279	52.39466
410.0938	55.98922
410.2597	60.36347
410.4256	56.42212
410.5915	55.91286
410.7574	61.16264
410.9232	60.61607
411.0891	57.6425
411.255	61.87518
411.4209	63.57944
411.5867	65.27477
411.7526	62.01906
411.9184	68.98421
412.0843	69.0353
412.2501	64.66629
412.4159	66.29018
412.5818	62.49581
412.7476	63.2385
412.9134	62.3598
413.0792	67.43501
413.245	62.05136
413.4108	62.84048
413.5766	63.69245
413.7424	63.22747
413.9082	65.13446
414.074	64.86956
414.2397	62.89648
414.4055	57.56765
414.5713	61.81608
414.737	67.1232
414.9028	64.99599
415.0685	63.87141
415.2343	65.92391
415.4	59.92611
415.5658	57.66994
415.7315	62.66145
415.8972	64.50836
416.0629	64.6613
416.2286	66.02184
416.3943	67.19223
416.56	60.58988
416.7257	65.4341
416.8914	64.64421
417.0571	63.43868
417.2228	63.91949
417.3884	64.15678
417.5541	66.22195
417.7198	63.52922
417.8854	68.372
418.0511	67.2375
418.2167	63.97047
418.3824	64.74039
418.548	65.24873
418.7136	59.32981
418.8792	60.90573
419.0449	66.66546
419.2105	63.73657
419.3761	68.78283
419.5417	70.90022
419.7073	64.38314
419.8729	64.01347
420.0385	59.93297
420.204	64.68798
420.3696	71.84152
420.5352	72.93397
420.7007	71.69957
420.8663	69.09365
421.0319	67.7634
421.1974	68.84956
421.3629	71.7049
421.5285	68.21996
421.694	70.26091
421.8595	72.18031
422.0251	77.3526
422.1906	76.87842
422.3561	65.69867
422.5216	63.72892
422.6871	63.59238
422.8526	71.31467
423.0181	72.7589
423.1835	78.847
423.349	76.36594
423.5145	75.15285
423.68	68.18513
423.8454	70.86606
424.0109	73.74953
424.1763	77.24426
424.3418	75.47741
424.5072	79.84446
424.6726	77.03178
424.838	78.49639
425.0035	73.3161
425.1689	74.8411
425.3343	80.68729
425.4997	81.12529
425.6651	78.00574
425.8305	80.37941
425.9959	80.97072
426.1613	83.41619
426.3267	82.16107
426.492	76.53542
426.6574	74.18732
426.8228	76.0612
426.9881	79.56593
427.1534	77.08108
427.3188	70.30573
427.4841	73.70109
427.6495	76.05563
427.8148	76.67656
427.9801	72.49808
428.1454	79.21885
428.3107	76.40453
428.476	75.79198
428.6414	73.06404
428.8066	74.57941
428.9719	75.33729
429.1372	78.63023
429.3025	79.16229
429.4678	77.43459
429.633	71.75999
429.7983	71.17845
429.9636	69.93155
430.1288	66.31112
430.294	67.894
430.4593	70.38519
430.6245	63.04217
430.7897	59.78669
430.955	61.13001
431.1202	62.93562
431.2854	65.55746
431.4506	75.02388
431.6158	85.09373
431.781	90.93731
431.9462	89.5231
432.1114	83.06252
432.2766	79.67389
432.4417	78.88274
432.6069	73.90948
432.772	77.00649
432.9372	82.05331
433.1024	82.95985
433.2675	82.0164
433.4326	85.55054
433.5977	82.39431
433.7629	77.66082
433.928	69.69702
434.0931	71.72285
434.2582	77.52435
434.4233	81.63836
434.5884	85.66694
434.7535	89.62925
434.9186	90.66685
435.0837	89.77338
435.2488	89.68413
435.4138	89.39096
435.5789	84.27361
435.744	90.49911
435.909	90.8815
436.0741	89.2719
436.2391	91.33701
436.4042	92.89854
436.5692	90.47613
436.7342	93.50281
436.8992	90.34476
437.0643	90.9048
437.2293	98.69132
437.3943	90.73313
437.5593	88.66849
437.7243	88.35617
437.8893	95.72299
438.0542	89.90179
438.2192	89.84332
438.3842	87.09012
438.5491	82.42532
438.7141	82.15445
438.8791	88.50424
439.044	94.20403
439.209	90.38941
439.3739	91.05045
439.5388	95.33024
439.7037	98.12641
439.8687	98.69025
440.0336	98.77932
440.1985	99.19762
440.3634	95.05054
440.5283	95.15194
440.6932	91.02308
440.8581	93.20894
441.0229	102.9426
441.1878	104.1774
441.3527	103.7832
441.5175	100.5878
441.6824	98.83283
441.8472	107.5826
442.0121	108.57
442.1769	99.35674
442.3418	99.02347
442.5066	103.0747
442.6714	105.6449
442.8362	101.6455
443.001	103.9154
443.1659	103.9584
443.3307	104.9952
443.4955	104.7127
443.6602	102.3227
443.825	104.2085
443.9898	108.9745
444.1546	97.37077
444.3193	99.54123
444.4841	102.7164
444.6488	109.8927
444.8136	117.3999
444.9783	114.6497
445.1431	102.0257
445.3078	104.9544
445.4725	100.8959
445.6372	102.7252
445.802	102.172
445.9667	96.43791
446.1314	95.78151
446.2961	105.3916
446.4608	104.5534
446.6255	103.976
446.7901	102.3743
446.9548	102.6868
447.1195	105.3328
447.2841	109.5924
447.4488	119.6392
447.6134	114.2702
447.7781	111.6143
447.9427	109.4068
448.1074	111.0973
448.272	102.3248
448.4366	105.378
448.6012	107.9729
448.7658	111.2375
448.9305	112.3311
449.095	111.8232
449.2596	117.3613
449.4242	116.3038
449.5888	107.9922
449.7534	119.4873
449.9179	121.0826
450.0825	115.7779
450.2471	118.4332
450.4116	122.6277
450.5762	125.0111
450.7407	127.2248
450.9052	125.0027
451.0698	118.5625
451.2343	117.9701
451.3988	118.8077
451.5633	112.3626
451.7278	120.287
451.8923	123.2385
452.0568	121.8522
452.2213	121.3144
452.3858	117.9059
452.5503	119.6892
452.7148	118.7017
452.8792	114.2762
453.0437	110.0454
453.2081	117.593
453.3726	118.7924
453.537	119.3198
453.7015	120.7793
453.8659	126.3134
454.0303	125.3556
454.1947	124.8019
454.3592	129.8238
454.5236	131.7209
454.688	122.2125
454.8524	119.361
455.0168	119.2996
455.1811	122.8539
455.3455	124.2397
455.5099	129.409
455.6743	124.7411
455.8386	126.2607
456.003	130.6433
456.1673	132.3558
456.3317	131.1193
456.496	130.1073
456.6603	128.486
456.8246	135.6006
456.989	138.1394
457.1533	135.194
457.3176	135.1924
457.4819	131.7299
457.6462	132.4422
457.8105	127.3635
457.9748	137.2784
458.1391	132.0458
458.3033	131.0694
458.4676	130.9079
458.6319	135.9667
458.7961	135.4048
458.9604	129.9228
459.1246	137.1876
459.2888	133.6815
459.4531	129.3735
459.6173	124.665
459.7815	131.1147
459.9457	135.1433
460.11	130.2108
460.2741	128.9315
460.4384	129.3937
460.6025	135.4454
460.7667	138.2524
460.9309	135.1381
461.0951	126.2969
461.2592	131.9455
461.4234	136.1309
461.5876	134.8566
461.7517	131.2295
461.9159	131.4332
462.08	129.1941
462.2441	136.1691
462.4082	137.2955
462.5724	136.7755
462.7365	140.7578
462.9006	133.3104
463.0647	130.1098
463.2288	132.3962
463.3929	135.6103
463.557	136.436
463.721	132.9254
463.8851	131.0674
464.0492	130.3559
464.2132	133.3217
464.3773	134.927
464.5414	132.9307
464.7054	128.6316
464.8694	130.4934
465.0334	132.7771
465.1975	129.7365
465.3615	128.4865
465.5255	133.2559
465.6895	129.141
465.8535	132.4602
466.0175	137.0654
466.1815	138.5305
466.3455	142.2321
466.5095	134.6832
466.6734	120.8547
466.8374	124.675
467.0014	127.7897
467.1653	131.4564
467.3293	139.6229
467.4932	136.7346
467.6571	135.7064
467.8211	140.7915
467.985	136.0133
468.1489	137.6838
468.3128	139.9834
468.4767	136.8238
468.6406	139.3794
468.8045	142.5594
468.9684	145.4839
469.1323	138.9888
469.2962	141.4057
469.46	141.0955
469.6239	141.3174
469.7878	146.6306
469.9516	140.2423
470.1154	133.1567
470.2793	138.505
470.4431	141.3985
470.607	144.6744
470.7708	136.5062
470.9346	140.9024
471.0984	142.7268
471.2622	139.2351
471.426	138.4827
471.5898	145.097
471.7536	143.4182
471.9174	147.4889
472.0811	149.7355
472.2449	149.0976
472.4087	143.5186
472.5724	150.2619
472.7362	147.1562
472.8999	138.8933
473.0637	142.3647
473.2274	148.7075
473.3911	149.5576
473.5548	141.9048
473.7185	145.3757
473.8822	145.8454
474.0459	143.8499
474.2096	148.0398
474.3733	147.7446
474.537	152.3501
474.7007	150.6856
474.8643	145.2955
475.028	149.6964
475.1917	146.2307
475.3553	146.1374
475.519	154.4161
475.6826	146.4579
475.8463	141.3908
476.0099	147.7405
476.1735	141.9738
476.3371	143.7255
476.5007	139.8654
476.6643	141.5824
476.8279	148.7577
476.9915	155.7062
477.1551	153.8044
477.3187	155.4286
477.4823	152.0005
477.6458	151.8622
477.8094	151.4823
477.9729	160.1037
478.1365	155.0795
478.3	141.3158
478.4636	142.3458
478.6271	146.907
478.7906	147.1866
478.9541	145.9277
479.1176	145.6686
479.2812	146.225
479.4447	152.1247
479.6082	158.4108
479.7716	151.5006
479.9351	146.0129
480.0986	143.8251
480.2621	145.6428
480.4255	150.5012
480.589	151.879
480.7524	152.6274
480.9159	151.2072
481.0793	144.267
481.2428	149.418
481.4062	146.006
481.5696	146.0336
481.733	150.6662
481.8964	150.5054
482.0598	152.0629
482.2232	149.1379
482.3866	145.8652
482.55	143.3123
482.7134	149.2366
482.8768	154.5649
483.0401	149.6799
483.2035	146.9491
483.3668	150.4173
483.5302	149.8424
483.6935	148.4261
483.8568	143.0956
484.0202	143.3822
484.1835	147.6805
484.3468	145.2459
484.5101	152.6429
484.6734	156.8717
484.8367	149.4424
485	151.6832
485.1633	153.1845
485.3266	148.048
485.4899	146.5647
485.6531	142.3041
485.8164	136.6557
485.9796	125.4532
486.1429	123.6211
486.3061	127.8934
486.4694	131.6931
486.6326	140.8683
486.7958	142.7597
486.959	147.6236
487.1223	146.7442
487.2855	148.1879
487.4486	146.1002
487.6118	151.4094
487.775	152.7516
487.9382	150.1562
488.1014	158.0219
488.2646	154.2543
488.4277	157.9347
488.5909	157.2215
488.754	151.0648
488.9171	147.4066
489.0803	144.6112
489.2434	144.5192
489.4066	152.2989
489.5697	153.593
489.7328	163.1513
489.8959	170.1319
490.059	162.6988
490.2221	162.5977
490.3852	154.5188
490.5482	152.4227
490.7113	161.2768
490.8744	159.3033
491.0374	160.3055
491.2005	146.1745
491.3636	155.655
491.5266	163.5717
491.6896	161.9512
491.8527	162.2772
492.0157	153.9226
492.1787	152.9775
492.3417	157.2308
492.5047	164.2022
492.6677	165.439
492.8307	163.8299
492.9937	170.2628
493.1567	166.7943
493.3196	161.1799
493.4826	159.4678
493.6456	153.3698
493.8085	157.0279
493.9715	157.4044
494.1344	155.6994
494.2974	161.056
494.4603	163.373
494.6232	168.951
494.7861	171.91
494.949	175.4408
495.1119	169.1901
495.2748	168.5256
495.4377	167.2932
495.6006	165.7513
495.7635	161.6985
495.9264	155.4431
496.0892	164.2635
496.2521	168.0564
496.4149	166.6463
496.5778	168.5375
496.7407	167.2517
496.9035	161.7788
497.0663	166.1954
497.2291	163.7789
497.3919	167.9329
497.5547	173.7077
497.7176	170.2461
497.8804	169.6772
498.0432	174.3556
498.2059	169.1019
498.3687	162.5187
498.5315	162.771
498.6942	171.2363
498.857	169.2175
499.0198	171.904
499.1825	175.0394
499.3452	172.7821
499.508	168.1565
499.6707	170.6365
499.8334	164.9999
499.9962	164.6505
500.1589	167.7169
500.3216	164.6454
500.4843	168.0746
500.6469	163.9363
500.8096	158.4101
500.9723	168.1009
501.135	176.6264
501.2976	169.6864
501.4603	165.2504
501.623	170.6316
501.7856	173.8602
501.9482	171.2175
502.1109	164.4908
502.2735	174.7661
502.4361	174.6313
502.5987	176.4609
502.7614	175.4598
502.924	175.4208
503.0865	177.0318
503.2491	177.515
503.4117	176.4347
503.5743	176.2169
503.7368	176.3322
503.8994	170.8298
504.062	166.022
504.2245	169.8241
504.3871	180.6118
504.5496	189.412
504.7121	190.1301
504.8746	181.4671
505.0372	182.9029
505.1997	179.8722
505.3622	188.4798
505.5247	189.6078
505.6872	190.9882
505.8497	196.0679
506.0121	200.1376
506.1746	194.5525
506.3371	193.0794
506.4995	189.4207
506.662	186.7346
506.8244	190.966
506.9869	194.3731
507.1493	196.581
507.3117	201.701
507.4742	191.746
507.6366	186.0679
507.799	193.7942
507.9614	190.5313
508.1238	187.3252
508.2862	194.6448
508.4485	195.3707
508.6109	202.3538
508.7733	197.0227
508.9357	202.0762
509.098	205.0324
509.2604	210.6585
509.4227	210.6546
509.5851	213.92
509.7474	203.1348
509.9097	196.1803
510.072	199.0204
510.2343	204.9459
510.3966	210.6664
510.5589	210.9539
510.7212	200.5975
510.8835	199.7895
511.0458	197.4046
511.2081	204.1307
511.3703	216.3087
511.5326	222.5319
511.6949	215.6973
511.8571	215.533
512.0193	221.4887
512.1816	217.4547
512.3438	211.7138
512.506	210.0202
512.6682	208.1931
512.8304	208.2918
512.9926	209.8988
513.1548	214.1829
513.317	216.7133
513.4792	214.8822
513.6414	218.002
513.8035	212.9771
513.9657	212.711
514.1279	206.5566
514.29	209.1102
514.4521	209.3091
514.6143	217.29
514.7764	221.2297
514.9385	224.2033
515.1006	227.6749
515.2628	216.8114
515.4249	214.24
515.587	224.5939
515.7491	236.2611
515.9111	225.2905
516.0732	222.8717
516.2353	221.92
516.3973	221.339
