SPECTRUM DATA FILE
SpectrumCount:	1
PixelCount:	3648
UserName:	ToughBook User
SampleName:	
LightSource:	
Comments:	
DeviceName:	Qwave
DeviceManufacturer:	Broadcom
DeviceSerialNo:	11311

Name:	last spectrum
Date:	2024-05-02T14:52:56.2122834+02:00
ExposureTime:	0.02
TemporalAvg:	1
IntensityUnit:	normalizedCounts
CCDLoadLevel:	0.04668982
Temperature:	33.14276
DiagramColor:	200
ProcessingSteps:	335

Wavelength [nm]	Intensity1
334.421	3.871804
334.5891	3.835164
334.7573	4.759657
334.9254	7.198406
335.0935	5.501661
335.2616	5.688571
335.4297	11.79331
335.5978	2.7755
335.7659	9.300169
335.934	4.486625
336.1021	5.489034
336.2701	3.469927
336.4382	5.806402
336.6063	8.508958
336.7744	3.906705
336.9424	3.529672
337.1105	8.224286
337.2785	7.925119
337.4466	6.655188
337.6146	5.907193
337.7827	7.575202
337.9507	2.85679
338.1187	3.910676
338.2867	6.290399
338.4548	7.645335
338.6228	5.459917
338.7908	2.020044
338.9588	4.952549
339.1268	2.715767
339.2948	4.699142
339.4628	8.781343
339.6308	7.093119
339.7988	10.61631
339.9667	7.601723
340.1347	8.184887
340.3027	5.771436
340.4707	8.061822
340.6386	7.558864
340.8066	5.56052
340.9745	7.244164
341.1425	5.546117
341.3104	6.728144
341.4784	4.736593
341.6463	4.523372
341.8142	3.676133
341.9821	7.86867
342.1501	6.545279
342.318	3.517686
342.4859	6.191608
342.6538	5.018545
342.8217	3.446344
342.9896	7.106444
343.1575	4.872205
343.3254	4.321238
343.4933	9.781627
343.6612	3.843016
343.829	3.014383
343.9969	7.212228
344.1648	9.79086
344.3326	9.386113
344.5005	9.411087
344.6683	6.896392
344.8362	6.066534
345.004	10.01845
345.1719	8.055721
345.3397	11.04562
345.5075	10.24285
345.6754	4.191554
345.8432	5.850585
346.011	6.809473
346.1788	6.281651
346.3466	7.40038
346.5144	2.917498
346.6822	5.138217
346.85	7.190384
347.0178	5.202991
347.1856	3.102136
347.3534	3.035724
347.5211	6.715656
347.6889	10.72478
347.8567	11.14538
348.0244	6.265526
348.1922	3.055707
348.3599	4.240736
348.5277	7.127176
348.6954	4.786731
348.8632	5.702063
349.0309	7.309846
349.1986	9.124578
349.3663	4.840406
349.5341	5.708357
349.7018	6.302606
349.8695	5.689603
350.0372	7.500145
350.2049	7.890191
350.3726	6.985316
350.5403	7.225546
350.7079	5.715422
350.8756	8.948071
351.0433	4.297825
351.211	4.491012
351.3786	7.034429
351.5463	5.806359
351.714	6.960863
351.8816	7.538491
352.0493	8.219522
352.2169	6.066851
352.3846	8.383816
352.5522	6.919977
352.7198	8.067994
352.8875	7.005086
353.0551	6.202401
353.2227	9.104056
353.3903	4.542236
353.5579	7.561277
353.7255	10.74685
353.8931	10.19256
354.0607	5.362507
354.2283	8.632169
354.3958	3.905205
354.5634	7.543144
354.731	10.7236
354.8986	9.098212
355.0661	5.104545
355.2337	9.162531
355.4012	7.64602
355.5688	9.125326
355.7363	4.342608
355.9039	3.415868
356.0714	10.88243
356.239	7.745934
356.4065	7.427014
356.574	3.440111
356.7415	10.43876
356.909	7.696479
357.0765	6.314833
357.244	6.785132
357.4115	5.772523
357.579	5.344427
357.7465	8.00191
357.914	6.892864
358.0815	5.560663
358.249	3.960072
358.4164	5.922539
358.5839	11.29228
358.7513	8.21188
358.9188	9.72508
359.0862	8.233006
359.2537	10.84414
359.4211	9.062707
359.5886	13.89992
359.756	4.098006
359.9234	6.925971
360.0909	8.742166
360.2583	5.434672
360.4257	5.199247
360.5931	6.954759
360.7605	5.373799
360.9279	9.971471
361.0953	7.742208
361.2627	7.827332
361.4301	6.4947
361.5974	5.440906
361.7648	4.523387
361.9322	5.373536
362.0995	4.440589
362.2669	6.97297
362.4343	4.46498
362.6016	6.756252
362.769	13.27344
362.9363	12.48324
363.1036	8.412535
363.271	11.52666
363.4383	7.935441
363.6056	10.26204
363.7729	7.201921
363.9402	8.863773
364.1075	10.76995
364.2748	9.092392
364.4421	9.531353
364.6094	9.170201
364.7767	6.314639
364.944	6.097162
365.1113	6.472249
365.2786	8.959496
365.4458	8.731707
365.6131	8.242316
365.7803	9.919724
365.9476	6.802501
366.1148	7.872947
366.2821	10.42025
366.4493	8.169128
366.6166	11.80255
366.7838	13.64556
366.951	8.7304
367.1182	9.467218
367.2855	12.81318
367.4527	10.09894
367.6199	11.86026
367.7871	9.545956
367.9543	7.206799
368.1215	9.088178
368.2886	11.74822
368.4558	11.6045
368.623	12.22923
368.7902	6.530027
368.9573	10.21144
369.1245	11.90121
369.2917	13.67455
369.4588	11.0697
369.6259	9.656923
369.7931	10.5796
369.9602	8.005351
370.1274	9.112615
370.2945	9.28441
370.4616	10.28153
370.6287	9.292993
370.7958	9.679852
370.963	13.94808
371.1301	12.30404
371.2971	7.817343
371.4643	8.966762
371.6313	11.19952
371.7984	8.561334
371.9655	13.40959
372.1326	13.86184
372.2997	6.610932
372.4667	7.848307
372.6338	7.990004
372.8008	7.340327
372.9679	4.799045
373.1349	10.45498
373.3019	11.59368
373.469	10.38495
373.636	9.493751
373.803	15.45933
373.9701	10.99074
374.1371	6.196295
374.3041	12.66362
374.4711	12.06496
374.6381	13.08724
374.8051	7.222997
374.9721	12.94897
375.1391	8.622671
375.3061	5.977592
375.473	10.9191
375.64	7.320795
375.8069	6.462333
375.9739	6.809179
376.1409	10.00188
376.3078	7.379486
376.4748	11.41859
376.6417	9.499756
376.8087	8.828969
376.9756	9.786896
377.1425	8.873423
377.3094	10.61964
377.4763	14.03839
377.6432	13.67081
377.8102	15.29129
377.9771	10.63752
378.144	8.21195
378.3109	13.66307
378.4777	10.55842
378.6446	6.510597
378.8115	11.75872
378.9784	14.71272
379.1452	10.22077
379.3121	10.18254
379.4789	13.59569
379.6458	11.56845
379.8127	10.89188
379.9795	8.413177
380.1463	11.47654
380.3131	12.59326
380.48	12.49556
380.6468	10.28254
380.8136	9.121148
380.9804	10.3818
381.1472	7.73313
381.314	6.913099
381.4808	8.995145
381.6476	9.911005
381.8144	10.59398
381.9812	8.262536
382.148	7.795973
382.3147	7.602464
382.4815	8.542955
382.6483	16.04396
382.815	14.32223
382.9818	11.63205
383.1485	8.822707
383.3153	11.99879
383.482	12.21087
383.6487	8.344538
383.8155	12.54651
383.9822	13.40005
384.1489	14.4942
384.3156	12.31417
384.4823	10.84612
384.649	14.37842
384.8157	16.94476
384.9824	12.84082
385.1491	12.90195
385.3158	11.58123
385.4825	10.00636
385.6491	11.50397
385.8158	12.93091
385.9825	8.652598
386.1491	13.10758
386.3157	14.63641
386.4824	14.65756
386.649	13.69627
386.8157	12.61263
386.9823	14.3349
387.1489	13.85413
387.3156	15.7505
387.4821	10.36519
387.6488	12.83604
387.8154	10.41696
387.982	9.974437
388.1486	10.8897
388.3152	9.633605
388.4818	14.45296
388.6483	11.76664
388.8149	12.41408
388.9815	11.84416
389.148	15.12556
389.3146	15.88908
389.4811	14.97801
389.6477	13.21507
389.8142	14.83631
389.9808	9.623349
390.1473	13.8478
390.3138	12.06183
390.4804	12.89884
390.6469	11.59572
390.8134	13.25791
390.9799	14.67315
391.1464	12.89974
391.3129	15.0388
391.4794	15.63118
391.6459	18.75829
391.8124	16.29048
391.9789	12.91564
392.1453	16.93206
392.3118	16.62493
392.4782	16.58713
392.6447	11.31684
392.8112	8.937449
392.9776	11.08803
393.144	9.612956
393.3105	7.749246
393.4769	9.367785
393.6433	11.71774
393.8098	9.688988
393.9762	12.84885
394.1426	12.97791
394.309	12.77023
394.4754	16.08024
394.6418	16.89633
394.8082	17.01109
394.9746	11.85934
395.141	13.77451
395.3073	20.74536
395.4737	16.71319
395.64	18.19026
395.8064	15.37032
395.9728	13.32893
396.1391	17.6062
396.3055	16.12572
396.4718	7.491803
396.6381	9.800952
396.8045	9.729222
396.9708	11.55414
397.1371	14.46847
397.3034	12.42802
397.4697	12.57061
397.636	16.38444
397.8023	17.18305
397.9686	18.76962
398.1349	24.42843
398.3012	21.97651
398.4675	22.70359
398.6337	19.57824
398.8	17.80005
398.9662	20.23713
399.1325	21.89281
399.2988	20.0685
399.465	19.79875
399.6313	22.28985
399.7975	21.10684
399.9637	15.45078
400.1299	12.35038
400.2961	17.58602
400.4624	14.47878
400.6286	22.97499
400.7948	18.86173
400.961	19.35759
401.1272	24.30005
401.2934	21.92405
401.4595	19.9165
401.6257	21.4924
401.7919	18.05069
401.9581	20.51973
402.1242	23.51123
402.2904	24.69854
402.4565	24.21173
402.6227	19.7182
402.7888	23.61504
402.955	22.37492
403.1211	18.24625
403.2872	16.63409
403.4533	27.31326
403.6194	25.31544
403.7856	20.44355
403.9517	26.73298
404.1177	23.85647
404.2838	19.79022
404.4499	21.1463
404.616	21.5055
404.7821	20.23631
404.9482	20.35889
405.1142	23.56017
405.2803	23.30504
405.4464	23.43178
405.6124	18.1341
405.7784	19.42429
405.9445	22.10003
406.1105	22.27491
406.2766	21.26673
406.4426	19.59624
406.6086	19.61338
406.7746	23.13219
406.9406	22.96367
407.1066	22.56522
407.2726	18.22289
407.4386	22.60456
407.6046	23.00452
407.7706	24.73199
407.9366	22.77725
408.1025	23.74314
408.2685	24.90591
408.4344	26.94635
408.6004	28.09749
408.7664	29.57218
408.9323	26.25888
409.0983	23.11769
409.2642	24.15185
409.4301	24.94049
409.596	32.16688
409.762	36.2845
409.9279	32.75639
410.0938	19.76096
410.2597	24.39209
410.4256	26.79101
410.5915	29.49172
410.7574	29.37917
410.9232	31.44076
411.0891	28.93204
411.255	32.69263
411.4209	28.02549
411.5867	31.54977
411.7526	28.87558
411.9184	27.38185
412.0843	25.6709
412.2501	30.63642
412.4159	29.20665
412.5818	28.18577
412.7476	31.19803
412.9134	29.18055
413.0792	27.69887
413.245	28.3115
413.4108	28.59683
413.5766	28.11629
413.7424	27.73535
413.9082	32.52621
414.074	31.20816
414.2397	28.19051
414.4055	28.41963
414.5713	29.70084
414.737	32.28926
414.9028	29.09892
415.0685	33.09087
415.2343	33.18013
415.4	29.53419
415.5658	33.1301
415.7315	26.86058
415.8972	25.62445
416.0629	29.58093
416.2286	29.64932
416.3943	32.80087
416.56	27.16053
416.7257	27.57117
416.8914	28.46623
417.0571	28.46311
417.2228	30.92842
417.3884	31.35603
417.5541	24.32741
417.7198	25.07582
417.8854	33.04694
418.0511	37.38499
418.2167	34.17353
418.3824	29.0417
418.548	27.68195
418.7136	34.89868
418.8792	35.06868
419.0449	30.07258
419.2105	37.04016
419.3761	32.93369
419.5417	35.17989
419.7073	35.07837
419.8729	30.25281
420.0385	28.03901
420.204	28.97251
420.3696	32.2416
420.5352	35.88308
420.7007	33.67876
420.8663	34.90425
421.0319	38.48603
421.1974	35.05759
421.3629	33.50809
421.5285	31.15046
421.694	34.68577
421.8595	41.47542
422.0251	40.05053
422.1906	40.69757
422.3561	34.66889
422.5216	31.13975
422.6871	26.48717
422.8526	32.66964
423.0181	38.64734
423.1835	40.49573
423.349	37.89204
423.5145	36.05688
423.68	29.1753
423.8454	32.85034
424.0109	40.63633
424.1763	42.95742
424.3418	41.92427
424.5072	39.42951
424.6726	39.92416
424.838	34.81159
425.0035	36.61036
425.1689	41.20665
425.3343	36.37341
425.4997	37.02144
425.6651	40.09505
425.8305	36.42563
425.9959	33.65315
426.1613	34.91943
426.3267	37.58582
426.492	42.07469
426.6574	40.51974
426.8228	42.58218
426.9881	37.69953
427.1534	32.38872
427.3188	34.5147
427.4841	38.28548
427.6495	32.05693
427.8148	37.59742
427.9801	39.92671
428.1454	36.93738
428.3107	41.32238
428.476	41.87672
428.6414	38.75308
428.8066	40.18802
428.9719	36.7917
429.1372	39.37627
429.3025	38.89982
429.4678	40.04218
429.633	40.76711
429.7983	31.50137
429.9636	28.79553
430.1288	28.80914
430.294	28.09329
430.4593	30.88741
430.6245	36.64545
430.7897	34.32868
430.955	29.94242
431.1202	29.55392
431.2854	32.33867
431.4506	40.4338
431.6158	41.98713
431.781	44.47362
431.9462	45.81446
432.1114	41.37578
432.2766	39.41426
432.4417	34.74947
432.6069	37.32528
432.772	39.16805
432.9372	41.40186
433.1024	41.05798
433.2675	44.81928
433.4326	47.25551
433.5977	42.82872
433.7629	43.87935
433.928	36.86409
434.0931	32.02801
434.2582	35.4025
434.4233	38.04778
434.5884	42.41924
434.7535	42.4676
434.9186	48.26286
435.0837	46.58184
435.2488	43.64423
435.4138	42.65114
435.5789	43.77217
435.744	41.72198
435.909	45.99919
436.0741	53.28057
436.2391	52.36726
436.4042	45.89327
436.5692	48.61796
436.7342	53.16056
436.8992	47.30393
437.0643	49.76799
437.2293	48.26444
437.3943	51.50839
437.5593	45.61537
437.7243	45.46884
437.8893	49.21504
438.0542	49.46632
438.2192	44.57152
438.3842	37.72927
438.5491	39.66648
438.7141	50.59198
438.8791	51.92775
439.044	45.91548
439.209	47.82221
439.3739	46.93672
439.5388	48.33131
439.7037	53.01493
439.8687	48.46506
440.0336	48.02822
440.1985	49.30888
440.3634	47.17274
440.5283	44.12999
440.6932	49.41542
440.8581	50.02954
441.0229	57.31521
441.1878	52.49237
441.3527	54.68028
441.5175	58.86599
441.6824	53.7128
441.8472	49.53134
442.0121	57.11736
442.1769	53.6718
442.3418	47.59108
442.5066	48.47124
442.6714	48.64365
442.8362	57.41328
443.001	55.222
443.1659	55.04052
443.3307	51.67598
443.4955	46.41054
443.6602	55.01509
443.825	58.82806
443.9898	53.33685
444.1546	51.95785
444.3193	54.619
444.4841	56.99785
444.6488	51.48238
444.8136	54.82679
444.9783	58.47945
445.1431	55.28529
445.3078	54.30563
445.4725	52.62362
445.6372	46.6422
445.802	52.45747
445.9667	53.52781
446.1314	52.55712
446.2961	52.77412
446.4608	57.98916
446.6255	55.26031
446.7901	57.64207
446.9548	56.00972
447.1195	56.22348
447.2841	62.28354
447.4488	58.90091
447.6134	57.70687
447.7781	59.46119
447.9427	56.09456
448.1074	56.59962
448.272	58.7863
448.4366	60.71578
448.6012	59.14728
448.7658	65.89733
448.9305	64.12969
449.095	59.4333
449.2596	55.66117
449.4242	58.01281
449.5888	58.87355
449.7534	61.47027
449.9179	63.14389
450.0825	62.34292
450.2471	66.8111
450.4116	68.33514
450.5762	71.29298
450.7407	63.93967
450.9052	63.10044
451.0698	60.43724
451.2343	61.26467
451.3988	62.76442
451.5633	63.23323
451.7278	67.24419
451.8923	64.5089
452.0568	63.6481
452.2213	63.34897
452.3858	61.68624
452.5503	61.01731
452.7148	62.15512
452.8792	58.18577
453.0437	59.45749
453.2081	60.6828
453.3726	57.85088
453.537	64.26138
453.7015	58.82143
453.8659	68.3158
454.0303	63.99683
454.1947	64.89116
454.3592	62.1462
454.5236	63.41998
454.688	69.06859
454.8524	68.35806
455.0168	69.43813
455.1811	66.48863
455.3455	67.11396
455.5099	65.36467
455.6743	62.9911
455.8386	67.079
456.003	70.23278
456.1673	70.03318
456.3317	61.74282
456.496	64.86366
456.6603	62.52685
456.8246	69.67175
456.989	73.39559
457.1533	70.07639
457.3176	70.31264
457.4819	68.45594
457.6462	68.46852
457.8105	73.53198
457.9748	68.71846
458.1391	64.22959
458.3033	68.55708
458.4676	70.30208
458.6319	72.71404
458.7961	73.92997
458.9604	70.04465
459.1246	68.45226
459.2888	65.99136
459.4531	67.80826
459.6173	70.54491
459.7815	72.54003
459.9457	65.98019
460.11	70.33907
460.2741	66.38717
460.4384	62.52827
460.6025	73.55262
460.7667	69.07283
460.9309	65.8197
461.0951	72.23124
461.2592	72.00832
461.4234	62.83562
461.5876	70.60065
461.7517	74.5402
461.9159	73.22159
462.08	70.55682
462.2441	72.14983
462.4082	73.86045
462.5724	72.2604
462.7365	72.40203
462.9006	72.50615
463.0647	70.8595
463.2288	68.83648
463.3929	72.36388
463.557	68.67298
463.721	71.19195
463.8851	72.03226
464.0492	76.72874
464.2132	70.53161
464.3773	71.51347
464.5414	66.40013
464.7054	64.48569
464.8694	70.10815
465.0334	69.33467
465.1975	67.17724
465.3615	69.97481
465.5255	70.25135
465.6895	70.8558
465.8535	70.31639
466.0175	73.3287
466.1815	73.23593
466.3455	66.93451
466.5095	68.43669
466.6734	66.97099
466.8374	68.38407
467.0014	69.37757
467.1653	74.20447
467.3293	69.63511
467.4932	73.62606
467.6571	74.4017
467.8211	76.85027
467.985	70.81806
468.1489	74.48397
468.3128	76.05437
468.4767	74.89283
468.6406	70.15234
468.8045	68.14116
468.9684	74.16019
469.1323	75.36958
469.2962	73.62624
469.46	77.1623
469.6239	75.03444
469.7878	72.30271
469.9516	71.57381
470.1154	73.80605
470.2793	69.43481
470.4431	72.04156
470.607	79.60326
470.7708	75.48099
470.9346	74.15535
471.0984	76.7515
471.2622	78.49393
471.426	73.63473
471.5898	77.42759
471.7536	82.9357
471.9174	81.94373
472.0811	72.69331
472.2449	78.15763
472.4087	78.70388
472.5724	72.82494
472.7362	75.13083
472.8999	70.68882
473.0637	79.73615
473.2274	78.86938
473.3911	77.20055
473.5548	79.0694
473.7185	85.16116
473.8822	76.71258
474.0459	75.48466
474.2096	80.61223
474.3733	78.7431
474.537	76.57217
474.7007	77.41508
474.8643	78.73401
475.028	75.90546
475.1917	76.54138
475.3553	76.83378
475.519	76.33681
475.6826	74.32729
475.8463	75.1148
476.0099	74.87717
476.1735	74.80287
476.3371	77.56392
476.5007	74.5557
476.6643	73.96911
476.8279	72.29919
476.9915	70.24171
477.1551	78.92915
477.3187	79.67381
477.4823	72.27895
477.6458	78.83103
477.8094	84.70689
477.9729	83.50777
478.1365	78.76138
478.3	82.27726
478.4636	76.82076
478.6271	76.52882
478.7906	77.80357
478.9541	82.40647
479.1176	78.68501
479.2812	76.80636
479.4447	81.68881
479.6082	80.99789
479.7716	81.33335
479.9351	84.29858
480.0986	76.6633
480.2621	74.51857
480.4255	81.62463
480.589	82.42119
480.7524	73.13348
480.9159	77.40394
481.0793	75.0245
481.2428	73.55724
481.4062	79.06491
481.5696	78.0034
481.733	81.43399
481.8964	80.73962
482.0598	84.9104
482.2232	80.96986
482.3866	79.47045
482.55	84.41602
482.7134	80.65405
482.8768	75.0423
483.0401	73.63353
483.2035	81.43396
483.3668	78.29822
483.5302	76.03513
483.6935	74.88766
483.8568	81.21545
484.0202	77.21952
484.1835	76.34652
484.3468	75.81091
484.5101	78.25733
484.6734	78.9612
484.8367	77.63958
485	79.34253
485.1633	75.40063
485.3266	77.50987
485.4899	68.21594
485.6531	73.05952
485.8164	72.10271
485.9796	66.85104
486.1429	65.25977
486.3061	60.87025
486.4694	71.2265
486.6326	75.20646
486.7958	73.94736
486.959	75.91354
487.1223	72.94079
487.2855	70.20316
487.4486	72.95181
487.6118	70.56653
487.775	82.03068
487.9382	83.74014
488.1014	87.18177
488.2646	84.7211
488.4277	82.9697
488.5909	84.59795
488.754	75.67509
488.9171	76.44344
489.0803	81.71963
489.2434	81.06964
489.4066	77.58025
489.5697	85.57919
489.7328	82.25527
489.8959	83.10452
490.059	84.93472
490.2221	88.16355
490.3852	85.92358
490.5482	87.36568
490.7113	87.06748
490.8744	84.78699
491.0374	73.52276
491.2005	78.13084
491.3636	79.5083
491.5266	87.13747
491.6896	85.09037
491.8527	78.13419
492.0157	77.75285
492.1787	71.0976
492.3417	80.23912
492.5047	82.99316
492.6677	84.94962
492.8307	87.62109
492.9937	90.80769
493.1567	84.41909
493.3196	87.42004
493.4826	87.14059
493.6456	82.71897
493.8085	76.2948
493.9715	81.62581
494.1344	88.82958
494.2974	93.40047
494.4603	85.6478
494.6232	77.74297
494.7861	88.36687
494.949	87.58529
495.1119	94.97202
495.2748	91.71907
495.4377	86.08576
495.6006	80.78182
495.7635	84.33358
495.9264	87.6609
496.0892	87.68851
496.2521	87.17097
496.4149	92.227
496.5778	91.58224
496.7407	89.6522
496.9035	92.01556
497.0663	90.30361
497.2291	87.57083
497.3919	89.88457
497.5547	90.38905
497.7176	87.44491
497.8804	92.72833
498.0432	84.8883
498.2059	83.43198
498.3687	88.4567
498.5315	84.79848
498.6942	93.73035
498.857	86.77773
499.0198	92.48569
499.1825	95.20448
499.3452	93.0645
499.508	92.07951
499.6707	88.6361
499.8334	90.93044
499.9962	85.6125
500.1589	89.62542
500.3216	92.50758
500.4843	90.0543
500.6469	89.40688
500.8096	89.5066
500.9723	90.14948
501.135	91.66224
501.2976	88.37963
501.4603	87.24525
501.623	88.91343
501.7856	83.87207
501.9482	80.61578
502.1109	87.86154
502.2735	92.04858
502.4361	92.38352
502.5987	87.99012
502.7614	93.15704
502.924	97.41567
503.0865	98.39458
503.2491	89.25562
503.4117	95.82689
503.5743	100.5577
503.7368	92.57958
503.8994	88.76679
504.062	89.52607
504.2245	93.72659
504.3871	101.5075
504.5496	101.2584
504.7121	100.5348
504.8746	100.5208
505.0372	100.2143
505.1997	99.97517
505.3622	101.8158
505.5247	104.1174
505.6872	98.71904
505.8497	105.3921
506.0121	107.0356
506.1746	104.5552
506.3371	104.8259
506.4995	103.9293
506.662	107.5115
506.8244	107.2179
506.9869	112.9051
507.1493	105.5578
507.3117	107.1672
507.4742	100.696
507.6366	103.1283
507.799	101.7081
507.9614	98.2503
508.1238	99.60902
508.2862	105.8
508.4485	108.4598
508.6109	105.4701
508.7733	105.9059
508.9357	115.7727
509.098	115.9111
509.2604	114.0296
509.4227	111.5458
509.5851	108.7647
509.7474	102.0769
509.9097	104.1473
510.072	105.9027
510.2343	113.6926
510.3966	110.721
510.5589	110.4303
510.7212	107.8068
510.8835	113.301
511.0458	112.746
511.2081	112.4098
511.3703	114.8426
511.5326	114.4668
511.6949	118.1595
511.8571	113.1554
512.0193	116.7836
512.1816	123.1337
512.3438	106.522
512.506	114.6829
512.6682	115.847
512.8304	117.1052
512.9926	114.7507
513.1548	119.9024
513.317	118.683
513.4792	116.3911
513.6414	112.8073
513.8035	116.6017
513.9657	113.1361
514.1279	116.5278
514.29	114.7252
514.4521	115.4487
514.6143	117.9154
514.7764	119.6936
514.9385	123.6116
515.1006	122.985
515.2628	118.5728
515.4249	119.2083
515.587	117.2641
515.7491	131.2566
515.9111	127.6883
516.0732	133.5308
516.2353	126.257
516.3973	116.0811
