SPECTRUM DATA FILE
SpectrumCount:	1
PixelCount:	3648
UserName:	ToughBook User
SampleName:	
LightSource:	
Comments:	
DeviceName:	Qwave
DeviceManufacturer:	Broadcom
DeviceSerialNo:	11311

Name:	last spectrum
Date:	2024-05-02T14:52:14.5884268+02:00
ExposureTime:	0.02
TemporalAvg:	1
IntensityUnit:	normalizedCounts
CCDLoadLevel:	0.07402353
Temperature:	33.0318
DiagramColor:	200
ProcessingSteps:	335

Wavelength [nm]	Intensity1
334.421	20.72802
334.5891	23.82416
334.7573	20.21754
334.9254	17.56662
335.0935	23.86844
335.2616	23.19805
335.4297	20.53963
335.5978	19.43173
335.7659	20.15907
335.934	25.78242
336.1021	25.33814
336.2701	20.59406
336.4382	15.43099
336.6063	23.67996
336.7744	19.81548
336.9424	19.19356
337.1105	19.64122
337.2785	20.3642
337.4466	22.34586
337.6146	18.78752
337.7827	20.29599
337.9507	19.68342
338.1187	18.72194
338.2867	23.81447
338.4548	22.54575
338.6228	23.66747
338.7908	22.57235
338.9588	21.85627
339.1268	23.0552
339.2948	22.88863
339.4628	20.23147
339.6308	17.84838
339.7988	26.13032
339.9667	19.61175
340.1347	17.51965
340.3027	21.94139
340.4707	21.45967
340.6386	20.48697
340.8066	16.99314
340.9745	23.93708
341.1425	20.31972
341.3104	20.9297
341.4784	18.71438
341.6463	19.90179
341.8142	24.68632
341.9821	18.82305
342.1501	18.95344
342.318	21.48183
342.4859	24.95937
342.6538	27.0571
342.8217	20.78174
342.9896	22.65619
343.1575	24.94333
343.3254	25.86772
343.4933	25.14688
343.6612	22.07578
343.829	24.1865
343.9969	25.25449
344.1648	25.73323
344.3326	24.89174
344.5005	28.90294
344.6683	23.22779
344.8362	24.04552
345.004	24.45191
345.1719	24.0655
345.3397	29.52499
345.5075	29.0118
345.6754	23.85634
345.8432	23.10119
346.011	20.9342
346.1788	25.08665
346.3466	30.26392
346.5144	21.00699
346.6822	21.48034
346.85	25.20163
347.0178	23.66776
347.1856	21.90575
347.3534	22.76654
347.5211	23.56801
347.6889	23.72062
347.8567	27.09996
348.0244	21.87542
348.1922	17.76301
348.3599	18.5954
348.5277	19.87011
348.6954	22.29651
348.8632	24.55942
349.0309	25.15182
349.1986	23.08644
349.3663	21.67805
349.5341	22.09335
349.7018	18.90335
349.8695	24.3996
350.0372	21.56274
350.2049	20.01028
350.3726	19.39833
350.5403	22.0092
350.7079	21.49456
350.8756	22.1747
351.0433	21.83981
351.211	23.55837
351.3786	25.83599
351.5463	25.57853
351.714	20.63706
351.8816	19.12746
352.0493	22.55218
352.2169	24.3329
352.3846	24.48061
352.5522	23.67443
352.7198	22.09598
352.8875	24.05543
353.0551	18.26104
353.2227	23.8497
353.3903	31.2534
353.5579	24.32135
353.7255	24.57448
353.8931	25.49608
354.0607	27.71639
354.2283	30.48556
354.3958	27.26119
354.5634	25.38867
354.731	29.26441
354.8986	26.48853
355.0661	23.64354
355.2337	20.25826
355.4012	21.00084
355.5688	22.74218
355.7363	25.37974
355.9039	27.13267
356.0714	23.85884
356.239	23.52713
356.4065	18.73737
356.574	24.59268
356.7415	26.77992
356.909	31.211
357.0765	27.00335
357.244	23.79236
357.4115	25.11427
357.579	25.24408
357.7465	24.09665
357.914	23.19837
358.0815	21.45273
358.249	19.8702
358.4164	25.31119
358.5839	24.19553
358.7513	22.10608
358.9188	26.58913
359.0862	21.81879
359.2537	23.14526
359.4211	27.27837
359.5886	27.77308
359.756	24.24974
359.9234	26.9454
360.0909	23.58773
360.2583	25.14686
360.4257	24.73289
360.5931	27.82111
360.7605	24.90519
360.9279	23.71404
361.0953	20.98282
361.2627	20.45826
361.4301	22.94114
361.5974	24.79463
361.7648	25.59962
361.9322	31.15998
362.0995	27.32984
362.2669	27.33984
362.4343	28.80198
362.6016	27.24072
362.769	30.17298
362.9363	22.46524
363.1036	30.28287
363.271	29.1305
363.4383	27.35229
363.6056	24.43071
363.7729	28.22657
363.9402	24.05807
364.1075	22.14087
364.2748	32.61794
364.4421	29.53445
364.6094	29.44387
364.7767	29.0828
364.944	28.81882
365.1113	30.59193
365.2786	31.57959
365.4458	25.72826
365.6131	30.59494
365.7803	33.20262
365.9476	31.86686
366.1148	25.41609
366.2821	28.3686
366.4493	27.19674
366.6166	28.51597
366.7838	28.57067
366.951	28.05221
367.1182	30.30986
367.2855	28.19153
367.4527	24.78774
367.6199	29.0197
367.7871	26.70784
367.9543	25.87983
368.1215	29.98357
368.2886	25.9464
368.4558	30.68937
368.623	29.04402
368.7902	27.6543
368.9573	28.77466
369.1245	27.34179
369.2917	27.46395
369.4588	27.4171
369.6259	26.71794
369.7931	29.30769
369.9602	27.44604
370.1274	28.14524
370.2945	29.52597
370.4616	25.8682
370.6287	25.67346
370.7958	28.7759
370.963	28.99829
371.1301	31.12211
371.2971	27.99293
371.4643	27.91406
371.6313	29.16385
371.7984	29.05499
371.9655	29.97707
372.1326	28.23235
372.2997	30.48071
372.4667	31.71258
372.6338	30.03237
372.8008	32.63336
372.9679	33.74249
373.1349	32.90244
373.3019	33.81956
373.469	26.10181
373.636	29.30365
373.803	32.3659
373.9701	31.19868
374.1371	32.01474
374.3041	35.60684
374.4711	35.22046
374.6381	30.6065
374.8051	32.69053
374.9721	35.46342
375.1391	35.98711
375.3061	36.52128
375.473	32.27345
375.64	28.16006
375.8069	33.75387
375.9739	29.94415
376.1409	31.434
376.3078	32.82752
376.4748	34.12084
376.6417	30.94611
376.8087	29.80236
376.9756	30.83369
377.1425	31.60731
377.3094	33.89176
377.4763	32.61967
377.6432	35.98397
377.8102	32.19884
377.9771	31.71659
378.144	34.80573
378.3109	36.61883
378.4777	33.29642
378.6446	29.68143
378.8115	27.82174
378.9784	28.79688
379.1452	29.75735
379.3121	29.77887
379.4789	30.74023
379.6458	32.18178
379.8127	31.49433
379.9795	33.02857
380.1463	35.79518
380.3131	34.90453
380.48	29.9983
380.6468	30.02011
380.8136	30.52272
380.9804	31.73004
381.1472	29.07946
381.314	26.97352
381.4808	30.18919
381.6476	34.18561
381.8144	28.35649
381.9812	30.51779
382.148	33.62433
382.3147	33.37706
382.4815	31.05143
382.6483	34.23843
382.815	31.48379
382.9818	30.98001
383.1485	34.71692
383.3153	35.2219
383.482	30.48856
383.6487	30.52228
383.8155	34.88736
383.9822	33.66471
384.1489	31.36866
384.3156	37.09947
384.4823	30.15741
384.649	32.98531
384.8157	35.8696
384.9824	39.06578
385.1491	39.00119
385.3158	36.72961
385.4825	40.57061
385.6491	32.44427
385.8158	34.56178
385.9825	33.85831
386.1491	29.68064
386.3157	39.09942
386.4824	37.63853
386.649	36.78367
386.8157	38.56748
386.9823	39.8768
387.1489	36.04542
387.3156	33.55476
387.4821	37.51195
387.6488	39.93359
387.8154	35.76091
387.982	34.73645
388.1486	34.65459
388.3152	37.17799
388.4818	37.11529
388.6483	39.56308
388.8149	39.24083
388.9815	37.17384
389.148	34.88971
389.3146	39.10234
389.4811	35.78002
389.6477	36.80416
389.8142	41.37338
389.9808	42.42804
390.1473	43.54131
390.3138	40.43787
390.4804	37.42592
390.6469	36.71765
390.8134	38.18217
390.9799	39.83581
391.1464	38.12115
391.3129	38.38173
391.4794	36.11078
391.6459	37.4443
391.8124	34.19646
391.9789	40.0776
392.1453	37.73409
392.3118	37.72876
392.4782	38.99041
392.6447	39.01363
392.8112	35.78018
392.9776	32.89566
393.144	30.83462
393.3105	27.58166
393.4769	31.23412
393.6433	34.81178
393.8098	33.5136
393.9762	37.86881
394.1426	35.13715
394.309	39.91279
394.4754	37.74636
394.6418	39.925
394.8082	40.29876
394.9746	44.38391
395.141	42.0675
395.3073	38.63092
395.4737	38.3513
395.64	41.71655
395.8064	42.43723
395.9728	45.51348
396.1391	42.52798
396.3055	40.26299
396.4718	37.64259
396.6381	38.92364
396.8045	39.1524
396.9708	44.93612
397.1371	40.62312
397.3034	40.41463
397.4697	45.90231
397.636	42.50695
397.8023	44.13647
397.9686	41.92898
398.1349	47.28067
398.3012	48.63923
398.4675	55.30939
398.6337	48.34222
398.8	48.79232
398.9662	47.40685
399.1325	49.78517
399.2988	49.29092
399.465	48.27629
399.6313	50.51588
399.7975	51.77201
399.9637	46.56435
400.1299	43.98028
400.2961	45.82794
400.4624	46.44781
400.6286	43.85691
400.7948	51.56646
400.961	52.34454
401.1272	50.47089
401.2934	51.00823
401.4595	53.249
401.6257	49.61193
401.7919	53.14523
401.9581	51.79952
402.1242	52.7928
402.2904	50.6151
402.4565	50.52524
402.6227	54.066
402.7888	50.89473
402.955	46.71208
403.1211	48.30588
403.2872	43.13718
403.4533	51.21704
403.6194	49.66951
403.7856	51.63517
403.9517	48.2436
404.1177	49.51488
404.2838	49.34082
404.4499	44.61749
404.616	48.00406
404.7821	50.56789
404.9482	48.71633
405.1142	50.50946
405.2803	53.45197
405.4464	46.06524
405.6124	46.58507
405.7784	49.5629
405.9445	53.0751
406.1105	51.95965
406.2766	47.57076
406.4426	45.23895
406.6086	50.81513
406.7746	48.00468
406.9406	53.7024
407.1066	57.19886
407.2726	55.21878
407.4386	54.20908
407.6046	52.59793
407.7706	47.82068
407.9366	54.54819
408.1025	55.05992
408.2685	58.63433
408.4344	55.45435
408.6004	57.40908
408.7664	57.74467
408.9323	58.93235
409.0983	59.53092
409.2642	57.25591
409.4301	56.89196
409.596	59.44504
409.762	59.10696
409.9279	61.05246
410.0938	63.63811
410.2597	56.86948
410.4256	51.23821
410.5915	54.59765
410.7574	59.43269
410.9232	63.83135
411.0891	67.07289
411.255	64.87482
411.4209	61.97379
411.5867	67.55582
411.7526	66.82687
411.9184	59.2569
412.0843	59.59669
412.2501	64.71946
412.4159	64.16923
412.5818	64.45943
412.7476	67.38343
412.9134	63.14656
413.0792	63.10189
413.245	68.15038
413.4108	65.28379
413.5766	61.65368
413.7424	64.3764
413.9082	62.0266
414.074	60.96279
414.2397	64.87082
414.4055	64.49603
414.5713	66.52283
414.737	61.73433
414.9028	65.81647
415.0685	65.62168
415.2343	63.20901
415.4	64.0222
415.5658	63.91837
415.7315	66.93562
415.8972	66.28845
416.0629	67.98016
416.2286	70.19055
416.3943	72.01665
416.56	66.52122
416.7257	62.61739
416.8914	62.43812
417.0571	65.94931
417.2228	63.88364
417.3884	60.92846
417.5541	61.79831
417.7198	66.45157
417.8854	66.38301
418.0511	67.18474
418.2167	68.50953
418.3824	67.90358
418.548	64.01492
418.7136	67.30316
418.8792	66.1926
419.0449	68.83722
419.2105	64.77917
419.3761	66.15552
419.5417	63.88224
419.7073	65.09389
419.8729	63.82737
420.0385	61.23704
420.204	65.76306
420.3696	63.94421
420.5352	65.26996
420.7007	73.82178
420.8663	80.9622
421.0319	73.93974
421.1974	71.52245
421.3629	71.95663
421.5285	73.05782
421.694	69.10149
421.8595	68.7002
422.0251	69.39873
422.1906	68.97448
422.3561	68.46027
422.5216	64.17129
422.6871	72.87629
422.8526	71.28044
423.0181	75.69674
423.1835	76.57487
423.349	76.0677
423.5145	74.17326
423.68	73.90276
423.8454	69.69099
424.0109	71.72617
424.1763	77.11119
424.3418	80.84211
424.5072	79.07533
424.6726	76.67174
424.838	71.50747
425.0035	78.29812
425.1689	76.77615
425.3343	74.71973
425.4997	78.22948
425.6651	82.54158
425.8305	81.30096
425.9959	74.51821
426.1613	76.23269
426.3267	74.57491
426.492	79.9058
426.6574	80.73222
426.8228	72.50797
426.9881	72.91334
427.1534	74.72871
427.3188	76.42847
427.4841	75.59541
427.6495	82.2347
427.8148	82.73429
427.9801	85.28033
428.1454	84.98362
428.3107	78.01022
428.476	73.74456
428.6414	76.55743
428.8066	76.66551
428.9719	73.21676
429.1372	79.0863
429.3025	75.90216
429.4678	74.60056
429.633	73.60123
429.7983	72.70011
429.9636	71.35896
430.1288	70.56951
430.294	72.24898
430.4593	72.98143
430.6245	68.40306
430.7897	69.65543
430.955	66.0041
431.1202	71.69543
431.2854	68.27738
431.4506	77.90145
431.6158	85.68648
431.781	83.44891
431.9462	82.63347
432.1114	82.74564
432.2766	80.7366
432.4417	73.50813
432.6069	71.04604
432.772	75.79963
432.9372	82.97801
433.1024	85.67465
433.2675	80.86122
433.4326	86.8007
433.5977	78.06819
433.7629	78.26732
433.928	71.62801
434.0931	70.09734
434.2582	72.72869
434.4233	80.08361
434.5884	85.69191
434.7535	87.30234
434.9186	89.6021
435.0837	86.79739
435.2488	82.20254
435.4138	79.96677
435.5789	88.59933
435.744	90.31367
435.909	83.40431
436.0741	94.5054
436.2391	91.89037
436.4042	95.69415
436.5692	96.13572
436.7342	93.94775
436.8992	94.78442
437.0643	96.07299
437.2293	93.00841
437.3943	91.08086
437.5593	93.8482
437.7243	87.00899
437.8893	92.32327
438.0542	93.42621
438.2192	88.80298
438.3842	79.07068
438.5491	85.26866
438.7141	90.85529
438.8791	92.14614
439.044	95.89225
439.209	96.53036
439.3739	94.20824
439.5388	96.51373
439.7037	99.51597
439.8687	101.0301
440.0336	99.23772
440.1985	96.73949
440.3634	89.15583
440.5283	90.42077
440.6932	95.9254
440.8581	96.29706
441.0229	106.555
441.1878	111.9558
441.3527	107.1911
441.5175	99.52731
441.6824	103.6615
441.8472	105.2439
442.0121	106.4475
442.1769	102.4139
442.3418	101.5618
442.5066	110.3335
442.6714	105.91
442.8362	106.5216
443.001	106.7164
443.1659	111.0289
443.3307	100.9562
443.4955	95.33619
443.6602	99.74226
443.825	108.3916
443.9898	109.3124
444.1546	101.6382
444.3193	96.00201
444.4841	108.4372
444.6488	108.359
444.8136	110.3329
444.9783	107.5065
445.1431	107.4418
445.3078	103.3206
445.4725	100.2623
445.6372	98.53488
445.802	102.7303
445.9667	98.50726
446.1314	99.47237
446.2961	100.3613
446.4608	105.6296
446.6255	99.8672
446.7901	103.9261
446.9548	104.7711
447.1195	105.4367
447.2841	104.7683
447.4488	112.3358
447.6134	115.2708
447.7781	112.5195
447.9427	103.0723
448.1074	102.3098
448.272	103.7731
448.4366	110.2323
448.6012	111.1527
448.7658	111.5053
448.9305	108.1852
449.095	107.4534
449.2596	116.4693
449.4242	113.4914
449.5888	116.4896
449.7534	110.0979
449.9179	111.8486
450.0825	113.9169
450.2471	115.8402
450.4116	116.5036
450.5762	115.0597
450.7407	118.4106
450.9052	122.0542
451.0698	119.1947
451.2343	117.3572
451.3988	115.1679
451.5633	116.9243
451.7278	115.9966
451.8923	113.4882
452.0568	117.6224
452.2213	121.3715
452.3858	119.7014
452.5503	119.8555
452.7148	112.7436
452.8792	106.3161
453.0437	109.9647
453.2081	114.697
453.3726	119.1623
453.537	117.6217
453.7015	119.8502
453.8659	120.3989
454.0303	126.2306
454.1947	127.8871
454.3592	120.1834
454.5236	123.7761
454.688	122.2004
454.8524	122.3765
455.0168	121.3948
455.1811	124.5687
455.3455	123.1398
455.5099	128.2074
455.6743	124.167
455.8386	129.7654
456.003	128.5297
456.1673	127.8263
456.3317	120.7446
456.496	125.3351
456.6603	123.9373
456.8246	130.211
456.989	126.4498
457.1533	136.0926
457.3176	134.3495
457.4819	127.5238
457.6462	123.7641
457.8105	125.623
457.9748	121.9223
458.1391	126.5339
458.3033	125.9646
458.4676	125.969
458.6319	124.1273
458.7961	125.3388
458.9604	130.2
459.1246	130.7931
459.2888	133.5359
459.4531	132.6594
459.6173	130.1489
459.7815	128.7883
459.9457	127.9057
460.11	132.1248
460.2741	131.9589
460.4384	123.8127
460.6025	131.7342
460.7667	130.5942
460.9309	130.1344
461.0951	128.8679
461.2592	130.3719
461.4234	131.5519
461.5876	129.7256
461.7517	134.1859
461.9159	129.9817
462.08	123.1087
462.2441	129.7314
462.4082	129.0075
462.5724	125.9672
462.7365	130.4791
462.9006	134.3473
463.0647	132.5056
463.2288	135.5597
463.3929	134.3275
463.557	131.5712
463.721	128.58
463.8851	124.1786
464.0492	125.7585
464.2132	133.5072
464.3773	126.2796
464.5414	124.9702
464.7054	128.1449
464.8694	123.6603
465.0334	133.9331
465.1975	134.638
465.3615	135.2985
465.5255	134.7068
465.6895	134.1313
465.8535	136.8685
466.0175	134.0901
466.1815	135.4087
466.3455	134.9167
466.5095	131.1057
466.6734	124.5512
466.8374	122.0462
467.0014	129.1653
467.1653	135.9142
467.3293	131.5831
467.4932	126.8959
467.6571	133.6207
467.8211	133.1957
467.985	130.0905
468.1489	128.0805
468.3128	130.9347
468.4767	133.5989
468.6406	135.2853
468.8045	136.2589
468.9684	141.1042
469.1323	140.2188
469.2962	131.0862
469.46	134.9613
469.6239	136.2208
469.7878	130.8104
469.9516	131.909
470.1154	127.8121
470.2793	133.1387
470.4431	133.5934
470.607	132.7162
470.7708	133.3252
470.9346	132.3078
471.0984	130.8044
471.2622	136.3279
471.426	142.4748
471.5898	141.8657
471.7536	141.5044
471.9174	144.8737
472.0811	146.6219
472.2449	146.252
472.4087	146.9093
472.5724	145.221
472.7362	139.664
472.8999	137.9358
473.0637	132.3695
473.2274	136.0659
473.3911	140.9125
473.5548	145.8852
473.7185	150.0043
473.8822	141.0249
474.0459	140.9596
474.2096	143.6173
474.3733	143.3354
474.537	147.1238
474.7007	148.9436
474.8643	147.0926
475.028	140.9756
475.1917	145.3838
475.3553	135.4095
475.519	138.3002
475.6826	145.8582
475.8463	141.2566
476.0099	138.6034
476.1735	138.9217
476.3371	135.9389
476.5007	139.4052
476.6643	140.1313
476.8279	145.8712
476.9915	143.883
477.1551	143.4205
477.3187	144.7275
477.4823	147.9185
477.6458	144.6586
477.8094	147.3204
477.9729	147.7514
478.1365	148.9046
478.3	143.5003
478.4636	146.3833
478.6271	147.3551
478.7906	140.1684
478.9541	138.6284
479.1176	136.5734
479.2812	142.8112
479.4447	148.7335
479.6082	152.6543
479.7716	146.4423
479.9351	144.8097
480.0986	143.211
480.2621	147.9411
480.4255	141.8932
480.589	143.5245
480.7524	142.8359
480.9159	139.0165
481.0793	145.8864
481.2428	144.9232
481.4062	151.7005
481.5696	150.3343
481.733	149.6665
481.8964	147.2133
482.0598	150.8946
482.2232	151.2379
482.3866	143.4767
482.55	140.2712
482.7134	141.0038
482.8768	140.7511
483.0401	142.7961
483.2035	146.4723
483.3668	143.9448
483.5302	147.4532
483.6935	142.9135
483.8568	141.8614
484.0202	137.3118
484.1835	138.8284
484.3468	141.5041
484.5101	146.0811
484.6734	147.0724
484.8367	150.1812
485	148.1642
485.1633	153.5482
485.3266	151.0655
485.4899	139.3115
485.6531	138.6698
485.8164	128.6138
485.9796	125.6934
486.1429	127.895
486.3061	126.8125
486.4694	127.7123
486.6326	136.071
486.7958	141.1666
486.959	140.5236
487.1223	138.0473
487.2855	144.7442
487.4486	144.598
487.6118	144.682
487.775	149.8113
487.9382	150.0364
488.1014	151.9997
488.2646	156.5916
488.4277	151.0738
488.5909	147.1766
488.754	144.5866
488.9171	144.4739
489.0803	142.8065
489.2434	148.098
489.4066	154.1991
489.5697	159.307
489.7328	157.868
489.8959	156.3792
490.059	158.1492
490.2221	157.0697
490.3852	154.4827
490.5482	158.1991
490.7113	161.3538
490.8744	155.6864
491.0374	151.6956
491.2005	150.9503
491.3636	156.5435
491.5266	162.4918
491.6896	152.3649
491.8527	154.5986
492.0157	150.2874
492.1787	154.2632
492.3417	155.5437
492.5047	155.1858
492.6677	154.5199
492.8307	161.8397
492.9937	159.7399
493.1567	158.642
493.3196	159.2977
493.4826	157.6098
493.6456	157.1501
493.8085	158.5141
493.9715	154.2856
494.1344	155.0379
494.2974	163.3633
494.4603	161.3943
494.6232	160.5353
494.7861	166.8798
494.949	161.1167
495.1119	169.6939
495.2748	163.2014
495.4377	162.7798
495.6006	161.5319
495.7635	162.7703
495.9264	164.9581
496.0892	162.616
496.2521	165.3067
496.4149	167.3395
496.5778	168.7161
496.7407	163.8075
496.9035	159.9508
497.0663	164.7693
497.2291	165.7188
497.3919	171.0537
497.5547	163.3223
497.7176	165.0373
497.8804	168.7336
498.0432	160.7635
498.2059	154.1636
498.3687	155.0325
498.5315	155.2067
498.6942	165.9136
498.857	165.8498
499.0198	171.1838
499.1825	166.9372
499.3452	162.1925
499.508	165.0573
499.6707	170.7776
499.8334	169.3861
499.9962	166.0505
500.1589	160.5754
500.3216	164.0646
500.4843	165.3764
500.6469	167.9328
500.8096	166.8844
500.9723	162.2783
501.135	169.9292
501.2976	166.3807
501.4603	162.1887
501.623	170.417
501.7856	172.6174
501.9482	167.5304
502.1109	171.9762
502.2735	171.2578
502.4361	166.834
502.5987	172.879
502.7614	168.5669
502.924	169.0981
503.0865	173.0595
503.2491	186.5466
503.4117	178.0049
503.5743	174.1546
503.7368	173.804
503.8994	175.2761
504.062	167.67
504.2245	165.7954
504.3871	168.1727
504.5496	176.7651
504.7121	181.5812
504.8746	183.4927
505.0372	182.7774
505.1997	180.7598
505.3622	184.0553
505.5247	185.64
505.6872	189.1823
505.8497	189.1506
506.0121	195.9541
506.1746	191.3132
506.3371	189.4386
506.4995	189.0845
506.662	179.6467
506.8244	187.6817
506.9869	192.3424
507.1493	191.079
507.3117	190.0176
507.4742	192.8772
507.6366	193.5216
507.799	193.7909
507.9614	186.1211
508.1238	179.4843
508.2862	184.0717
508.4485	193.9474
508.6109	200.2773
508.7733	201.033
508.9357	203.3687
509.098	206.8913
509.2604	203.9711
509.4227	204.0799
509.5851	204.277
509.7474	201.2364
509.9097	191.8577
510.072	198.2935
510.2343	193.2131
510.3966	206.1405
510.5589	207.4007
510.7212	205.0396
510.8835	196.4562
511.0458	204.074
511.2081	207.3519
511.3703	211.4777
511.5326	211.4914
511.6949	206.8469
511.8571	216.9301
512.0193	219.202
512.1816	213.4763
512.3438	206.5895
512.506	205.1726
512.6682	200.3985
512.8304	207.9781
512.9926	208.4487
513.1548	214.2602
513.317	215.6571
513.4792	214.6581
513.6414	214.0602
513.8035	207.5053
513.9657	209.2695
514.1279	207.675
514.29	209.2963
514.4521	213.6153
514.6143	216.8572
514.7764	213.8117
514.9385	216.7829
515.1006	225.8131
515.2628	225.4161
515.4249	221.2998
515.587	219.2348
515.7491	217.7426
515.9111	223.1078
516.0732	226.8539
516.2353	224.0329
