SPECTRUM DATA FILE
SpectrumCount:	1
PixelCount:	3648
UserName:	ToughBook User
SampleName:	
LightSource:	
Comments:	
DeviceName:	Qwave
DeviceManufacturer:	Broadcom
DeviceSerialNo:	11311

Name:	last spectrum
Date:	2024-05-02T14:51:50.4954021+02:00
ExposureTime:	0.02
TemporalAvg:	1
IntensityUnit:	normalizedCounts
CCDLoadLevel:	0.06684588
Temperature:	32.92099
DiagramColor:	200
ProcessingSteps:	335

Wavelength [nm]	Intensity1
334.421	20.33178
334.5891	17.8015
334.7573	20.17402
334.9254	14.72304
335.0935	18.54743
335.2616	19.00907
335.4297	21.76974
335.5978	19.59086
335.7659	17.48676
335.934	22.26427
336.1021	20.0752
336.2701	19.91342
336.4382	21.55165
336.6063	24.62794
336.7744	19.81027
336.9424	17.07066
337.1105	17.74971
337.2785	22.08245
337.4466	12.19409
337.6146	13.87447
337.7827	17.08382
337.9507	17.41934
338.1187	15.44563
338.2867	17.48833
338.4548	12.47609
338.6228	19.30314
338.7908	18.07495
338.9588	18.87076
339.1268	16.96378
339.2948	19.1255
339.4628	20.58066
339.6308	21.31514
339.7988	16.86058
339.9667	15.04479
340.1347	19.58881
340.3027	22.59688
340.4707	16.49675
340.6386	15.79592
340.8066	18.85656
340.9745	21.99163
341.1425	19.53552
341.3104	22.15026
341.4784	21.44193
341.6463	24.11275
341.8142	20.53732
341.9821	22.94251
342.1501	19.59197
342.318	24.78452
342.4859	19.92441
342.6538	18.97596
342.8217	21.04566
342.9896	22.12019
343.1575	19.07091
343.3254	21.2241
343.4933	21.63474
343.6612	18.84756
343.829	20.5541
343.9969	18.38043
344.1648	24.77105
344.3326	22.77139
344.5005	22.52364
344.6683	20.27022
344.8362	18.38857
345.004	14.5295
345.1719	20.69933
345.3397	22.35646
345.5075	18.25089
345.6754	22.04626
345.8432	27.95226
346.011	23.60477
346.1788	21.15881
346.3466	21.17344
346.5144	21.29335
346.6822	19.17096
346.85	24.63868
347.0178	25.13488
347.1856	24.08622
347.3534	21.25766
347.5211	16.62984
347.6889	17.9731
347.8567	20.03811
348.0244	19.58777
348.1922	24.44705
348.3599	19.12642
348.5277	17.56921
348.6954	21.45026
348.8632	21.91031
349.0309	20.91788
349.1986	20.57806
349.3663	16.85569
349.5341	14.35095
349.7018	18.22301
349.8695	20.15869
350.0372	21.45218
350.2049	20.35773
350.3726	20.93069
350.5403	18.64734
350.7079	22.7758
350.8756	26.08334
351.0433	20.13076
351.211	15.26353
351.3786	20.33016
351.5463	20.88743
351.714	19.26565
351.8816	21.6359
352.0493	26.82207
352.2169	22.45126
352.3846	21.49102
352.5522	24.71964
352.7198	21.85503
352.8875	22.11632
353.0551	22.86724
353.2227	23.80367
353.3903	26.94909
353.5579	23.07035
353.7255	20.9528
353.8931	18.38958
354.0607	20.97663
354.2283	25.31933
354.3958	20.29871
354.5634	27.62691
354.731	23.21916
354.8986	19.42689
355.0661	22.14676
355.2337	22.68196
355.4012	26.92766
355.5688	17.67072
355.7363	20.93591
355.9039	20.99729
356.0714	21.18879
356.239	21.9812
356.4065	24.45921
356.574	24.3742
356.7415	19.53094
356.909	23.24566
357.0765	21.70587
357.244	20.72795
357.4115	17.4563
357.579	18.69042
357.7465	20.66672
357.914	19.04636
358.0815	17.10271
358.249	16.89921
358.4164	18.79036
358.5839	23.38947
358.7513	23.30696
358.9188	22.69671
359.0862	19.43872
359.2537	20.42366
359.4211	19.62872
359.5886	21.28198
359.756	24.23255
359.9234	19.14446
360.0909	23.93614
360.2583	19.20212
360.4257	27.75337
360.5931	21.75043
360.7605	18.70218
360.9279	23.02388
361.0953	21.54325
361.2627	26.03218
361.4301	21.82036
361.5974	20.39975
361.7648	23.25139
361.9322	24.69961
362.0995	21.75109
362.2669	22.07916
362.4343	26.66705
362.6016	18.35461
362.769	28.09483
362.9363	24.97696
363.1036	21.06685
363.271	20.65408
363.4383	25.24996
363.6056	26.1556
363.7729	23.62891
363.9402	27.81963
364.1075	22.60927
364.2748	22.25038
364.4421	26.91302
364.6094	27.44024
364.7767	26.85354
364.944	24.46731
365.1113	26.64144
365.2786	21.41072
365.4458	21.7129
365.6131	23.74861
365.7803	28.79859
365.9476	28.40337
366.1148	24.25767
366.2821	27.74295
366.4493	25.26534
366.6166	23.41888
366.7838	25.45371
366.951	29.30154
367.1182	23.30866
367.2855	23.95766
367.4527	26.29954
367.6199	18.4771
367.7871	21.975
367.9543	23.35536
368.1215	26.41941
368.2886	26.46106
368.4558	28.75594
368.623	24.86265
368.7902	19.82966
368.9573	21.35124
369.1245	20.11353
369.2917	25.17872
369.4588	27.74941
369.6259	26.41118
369.7931	22.08741
369.9602	22.86147
370.1274	21.73359
370.2945	25.08198
370.4616	24.4065
370.6287	23.07495
370.7958	25.48056
370.963	26.74858
371.1301	24.8527
371.2971	22.36827
371.4643	24.32781
371.6313	29.71585
371.7984	29.80353
371.9655	29.02347
372.1326	26.98387
372.2997	29.8474
372.4667	22.89549
372.6338	23.71928
372.8008	23.67393
372.9679	30.07781
373.1349	27.42712
373.3019	30.22452
373.469	26.36233
373.636	28.30362
373.803	29.78573
373.9701	28.83493
374.1371	28.48203
374.3041	32.38101
374.4711	30.72835
374.6381	27.18425
374.8051	27.12679
374.9721	28.32609
375.1391	27.47121
375.3061	29.51299
375.473	29.60466
375.64	30.96706
375.8069	28.79697
375.9739	28.55687
376.1409	30.87444
376.3078	31.02687
376.4748	29.87566
376.6417	33.58372
376.8087	26.60648
376.9756	28.56142
377.1425	34.18985
377.3094	27.63555
377.4763	25.09218
377.6432	27.31112
377.8102	33.11739
377.9771	28.14055
378.144	35.05959
378.3109	34.67081
378.4777	31.55808
378.6446	24.42908
378.8115	24.6588
378.9784	23.61347
379.1452	28.70087
379.3121	27.33772
379.4789	22.96407
379.6458	26.11309
379.8127	22.87198
379.9795	26.43502
380.1463	27.58389
380.3131	30.05651
380.48	28.40693
380.6468	28.63265
380.8136	33.3974
380.9804	30.7946
381.1472	30.7881
381.314	29.21311
381.4808	26.78312
381.6476	26.78034
381.8144	28.96276
381.9812	27.04804
382.148	25.92862
382.3147	24.44356
382.4815	25.55196
382.6483	26.89403
382.815	22.08619
382.9818	23.92741
383.1485	30.05609
383.3153	31.53583
383.482	30.85138
383.6487	25.59964
383.8155	29.12795
383.9822	31.34927
384.1489	29.63595
384.3156	32.17013
384.4823	30.81731
384.649	28.20065
384.8157	31.99075
384.9824	34.98138
385.1491	35.08704
385.3158	31.89784
385.4825	31.71133
385.6491	31.66385
385.8158	28.24081
385.9825	33.41012
386.1491	33.0606
386.3157	36.04939
386.4824	35.53873
386.649	36.85028
386.8157	33.05984
386.9823	28.39189
387.1489	30.2339
387.3156	32.14587
387.4821	32.31532
387.6488	28.12566
387.8154	31.2541
387.982	29.61463
388.1486	33.42128
388.3152	32.38722
388.4818	32.61807
388.6483	36.79939
388.8149	37.19062
388.9815	35.14531
389.148	30.05979
389.3146	31.70689
389.4811	30.39942
389.6477	33.90179
389.8142	37.50958
389.9808	30.18908
390.1473	29.97945
390.3138	29.07055
390.4804	35.94546
390.6469	35.26502
390.8134	30.58776
390.9799	35.51898
391.1464	39.02933
391.3129	39.56238
391.4794	32.76476
391.6459	32.76741
391.8124	30.09972
391.9789	32.87962
392.1453	30.16031
392.3118	34.29104
392.4782	33.38708
392.6447	32.0937
392.8112	32.9062
392.9776	30.20926
393.144	31.76101
393.3105	32.78079
393.4769	27.94143
393.6433	32.10161
393.8098	32.90512
393.9762	34.46682
394.1426	33.30629
394.309	38.34857
394.4754	36.15501
394.6418	37.92579
394.8082	36.89175
394.9746	36.87078
395.141	36.02095
395.3073	33.66153
395.4737	37.20214
395.64	39.45703
395.8064	37.99264
395.9728	40.982
396.1391	36.33136
396.3055	35.08689
396.4718	31.69428
396.6381	34.64091
396.8045	32.05213
396.9708	30.22014
397.1371	33.6994
397.3034	31.20875
397.4697	33.65312
397.636	37.2256
397.8023	43.34957
397.9686	39.15548
398.1349	45.34249
398.3012	45.87879
398.4675	39.91943
398.6337	42.03906
398.8	45.20182
398.9662	44.64911
399.1325	42.1745
399.2988	43.17883
399.465	39.274
399.6313	37.21007
399.7975	44.53451
399.9637	45.19414
400.1299	40.48877
400.2961	46.12918
400.4624	46.1944
400.6286	43.41544
400.7948	42.71976
400.961	43.52846
401.1272	44.6653
401.2934	43.06041
401.4595	44.4456
401.6257	45.67313
401.7919	39.54064
401.9581	44.67272
402.1242	43.39307
402.2904	42.69062
402.4565	47.81155
402.6227	44.98356
402.7888	44.8079
402.955	46.29601
403.1211	42.54064
403.2872	41.98268
403.4533	42.12762
403.6194	46.35841
403.7856	45.01807
403.9517	43.31292
404.1177	44.87613
404.2838	45.35891
404.4499	40.07241
404.616	43.74603
404.7821	47.4914
404.9482	48.30309
405.1142	47.08419
405.2803	45.14063
405.4464	44.28799
405.6124	41.38816
405.7784	40.03965
405.9445	47.39055
406.1105	50.3579
406.2766	49.87251
406.4426	44.65355
406.6086	44.48852
406.7746	42.01979
406.9406	45.75763
407.1066	45.74434
407.2726	46.30171
407.4386	44.45332
407.6046	51.888
407.7706	48.77926
407.9366	49.67205
408.1025	51.84669
408.2685	53.21817
408.4344	49.30552
408.6004	55.0661
408.7664	49.10519
408.9323	59.61582
409.0983	56.02819
409.2642	55.99304
409.4301	56.45181
409.596	52.28724
409.762	54.62074
409.9279	52.29262
410.0938	43.38426
410.2597	51.49946
410.4256	56.9515
410.5915	60.21886
410.7574	58.44138
410.9232	59.25946
411.0891	53.33369
411.255	52.29425
411.4209	60.43401
411.5867	55.16813
411.7526	59.07808
411.9184	61.2053
412.0843	58.20251
412.2501	57.94784
412.4159	55.7016
412.5818	57.8993
412.7476	64.60999
412.9134	60.80249
413.0792	51.60431
413.245	53.13068
413.4108	53.31556
413.5766	59.25006
413.7424	57.45058
413.9082	60.22034
414.074	59.057
414.2397	64.12292
414.4055	57.06149
414.5713	61.11784
414.737	58.66971
414.9028	68.30243
415.0685	66.07577
415.2343	60.87538
415.4	62.59792
415.5658	62.58567
415.7315	58.88068
415.8972	59.76811
416.0629	55.41982
416.2286	59.21808
416.3943	63.28288
416.56	60.9747
416.7257	60.032
416.8914	63.71096
417.0571	57.90084
417.2228	55.31076
417.3884	55.29429
417.5541	53.30372
417.7198	55.6576
417.8854	54.22866
418.0511	64.47372
418.2167	60.83883
418.3824	60.23359
418.548	60.38256
418.7136	53.82576
418.8792	55.57908
419.0449	58.66711
419.2105	60.14884
419.3761	60.49553
419.5417	61.32249
419.7073	56.44302
419.8729	56.4029
420.0385	54.99703
420.204	56.48452
420.3696	59.40116
420.5352	64.57843
420.7007	65.01099
420.8663	65.12599
421.0319	72.31277
421.1974	67.19854
421.3629	63.48674
421.5285	63.70069
421.694	61.46238
421.8595	64.50623
422.0251	63.80434
422.1906	70.12424
422.3561	69.62621
422.5216	62.84684
422.6871	58.34825
422.8526	62.46574
423.0181	66.7598
423.1835	66.80206
423.349	65.68443
423.5145	65.96674
423.68	65.15306
423.8454	66.50745
424.0109	67.84108
424.1763	70.82445
424.3418	74.2536
424.5072	70.72278
424.6726	67.06813
424.838	66.96069
425.0035	65.88446
425.1689	71.55032
425.3343	71.89025
425.4997	65.58423
425.6651	66.73626
425.8305	69.3214
425.9959	66.49287
426.1613	68.42493
426.3267	70.58888
426.492	75.40907
426.6574	68.92324
426.8228	73.49288
426.9881	70.30035
427.1534	63.29254
427.3188	55.10982
427.4841	66.42342
427.6495	71.95872
427.8148	73.20348
427.9801	71.48422
428.1454	72.21847
428.3107	72.97473
428.476	69.53617
428.6414	69.84744
428.8066	69.47077
428.9719	66.1414
429.1372	68.76576
429.3025	69.0209
429.4678	69.9164
429.633	69.50282
429.7983	61.93502
429.9636	62.88253
430.1288	66.4205
430.294	69.07651
430.4593	64.88554
430.6245	65.94582
430.7897	62.58577
430.955	56.92536
431.1202	58.07011
431.2854	67.37593
431.4506	72.74729
431.6158	78.94478
431.781	84.2521
431.9462	79.84589
432.1114	74.81663
432.2766	74.52945
432.4417	68.61192
432.6069	65.98274
432.772	65.6311
432.9372	71.61753
433.1024	76.90847
433.2675	76.07002
433.4326	72.62109
433.5977	74.39813
433.7629	71.99103
433.928	65.24057
434.0931	63.62047
434.2582	69.1331
434.4233	72.7522
434.5884	76.37209
434.7535	76.53465
434.9186	79.43459
435.0837	78.02174
435.2488	79.69612
435.4138	78.12685
435.5789	81.10757
435.744	83.95053
435.909	79.76884
436.0741	81.31737
436.2391	83.245
436.4042	83.09954
436.5692	81.62593
436.7342	82.24622
436.8992	80.83233
437.0643	80.65987
437.2293	84.78271
437.3943	84.21072
437.5593	81.61411
437.7243	81.59188
437.8893	84.26397
438.0542	91.13507
438.2192	83.93584
438.3842	80.34464
438.5491	76.89961
438.7141	78.15907
438.8791	82.32791
439.044	80.59222
439.209	79.95291
439.3739	88.15453
439.5388	89.00364
439.7037	87.01147
439.8687	92.56584
440.0336	92.12598
440.1985	88.47356
440.3634	82.65888
440.5283	82.55645
440.6932	88.72337
440.8581	89.46893
441.0229	95.87444
441.1878	94.92211
441.3527	96.61864
441.5175	85.52784
441.6824	88.14002
441.8472	96.38818
442.0121	98.02509
442.1769	94.20672
442.3418	88.32268
442.5066	87.47125
442.6714	97.65776
442.8362	92.75615
443.001	88.8038
443.1659	92.1436
443.3307	94.32758
443.4955	91.34451
443.6602	96.87731
443.825	102.2062
443.9898	101.4488
444.1546	94.87937
444.3193	92.76342
444.4841	93.56972
444.6488	93.64122
444.8136	96.57687
444.9783	98.73994
445.1431	93.02292
445.3078	96.75652
445.4725	91.95461
445.6372	92.27696
445.802	90.22879
445.9667	88.28475
446.1314	95.40894
446.2961	92.72053
446.4608	99.05015
446.6255	96.70263
446.7901	95.03011
446.9548	92.24989
447.1195	99.23521
447.2841	99.58817
447.4488	103.5135
447.6134	102.4701
447.7781	103.2749
447.9427	101.7315
448.1074	99.56598
448.272	93.94376
448.4366	97.74879
448.6012	104.8567
448.7658	104.2774
448.9305	94.73113
449.095	99.81373
449.2596	100.221
449.4242	102.0017
449.5888	95.60801
449.7534	101.6781
449.9179	101.0276
450.0825	103.8969
450.2471	105.0608
450.4116	103.2929
450.5762	105.0647
450.7407	106.1845
450.9052	110.5416
451.0698	109.6046
451.2343	110.8519
451.3988	106.5754
451.5633	104.3424
451.7278	103.1614
451.8923	108.2346
452.0568	108.3291
452.2213	102.6732
452.3858	106.5841
452.5503	107.9308
452.7148	98.73853
452.8792	99.96041
453.0437	101.0479
453.2081	102.8694
453.3726	107.9586
453.537	104.786
453.7015	110.4574
453.8659	114.6498
454.0303	113.1392
454.1947	108.1127
454.3592	117.4108
454.5236	115.3008
454.688	109.5063
454.8524	114.9778
455.0168	113.9784
455.1811	113.4123
455.3455	114.5615
455.5099	104.2201
455.6743	113.778
455.8386	113.7289
456.003	117.2541
456.1673	119.455
456.3317	115.5914
456.496	114.022
456.6603	118.1334
456.8246	117.1604
456.989	118.6447
457.1533	115.1781
457.3176	113.5103
457.4819	115.0668
457.6462	115.9611
457.8105	115.4029
457.9748	111.8997
458.1391	119.793
458.3033	114.219
458.4676	117.7546
458.6319	116.0252
458.7961	115.1672
458.9604	118.679
459.1246	115.4339
459.2888	113.1008
459.4531	117.8555
459.6173	117.0137
459.7815	117.1674
459.9457	122.3734
460.11	119.0065
460.2741	117.0362
460.4384	114.8789
460.6025	113.3301
460.7667	118.3339
460.9309	119.0255
461.0951	121.0475
461.2592	112.1136
461.4234	118.7733
461.5876	114.8538
461.7517	113.2696
461.9159	117.8114
462.08	116.7251
462.2441	115.7652
462.4082	121.2842
462.5724	119.147
462.7365	123.2941
462.9006	121.738
463.0647	127.9889
463.2288	119.4547
463.3929	124.4474
463.557	120.6875
463.721	118.0018
463.8851	113.513
464.0492	118.5581
464.2132	121.8475
464.3773	117.1216
464.5414	116.7748
464.7054	118.0754
464.8694	118.4363
465.0334	116.6101
465.1975	119.4223
465.3615	124.0086
465.5255	117.7562
465.6895	116.1817
465.8535	120.3483
466.0175	124.1209
466.1815	117.4235
466.3455	120.5675
466.5095	121.2094
466.6734	115.0157
466.8374	117.4344
467.0014	117.5701
467.1653	116.0253
467.3293	116.6354
467.4932	119.958
467.6571	120.78
467.8211	120.7113
467.985	118.4224
468.1489	122.9651
468.3128	121.6607
468.4767	122.5108
468.6406	122.7653
468.8045	122.7743
468.9684	121.8768
469.1323	123.8878
469.2962	124.0621
469.46	128.6819
469.6239	128.5874
469.7878	127.1234
469.9516	126.279
470.1154	123.5107
470.2793	115.649
470.4431	124.4965
470.607	123.5165
470.7708	121.3505
470.9346	121.2882
471.0984	128.4925
471.2622	133.5307
471.426	128.2116
471.5898	126.289
471.7536	123.9723
471.9174	131.3754
472.0811	134.3842
472.2449	137.5107
472.4087	129.521
472.5724	131.7252
472.7362	130.593
472.8999	129.8455
473.0637	128.7761
473.2274	136.4109
473.3911	131.5814
473.5548	133.8208
473.7185	127.9696
473.8822	130.036
474.0459	130.1579
474.2096	132.1003
474.3733	136.6769
474.537	134.8629
474.7007	130.4365
474.8643	129.7118
475.028	128.9076
475.1917	128.608
475.3553	134.9412
475.519	131.1915
475.6826	130.0578
475.8463	133.7507
476.0099	139.7876
476.1735	133.5008
476.3371	128.034
476.5007	134.1665
476.6643	132.0277
476.8279	125.5471
476.9915	127.2355
477.1551	139.6971
477.3187	134.43
477.4823	132.3494
477.6458	144.4938
477.8094	136.9433
477.9729	138.8222
478.1365	138.2708
478.3	133.7896
478.4636	139.1327
478.6271	132.0772
478.7906	131.6923
478.9541	133.4596
479.1176	142.5963
479.2812	133.7006
479.4447	140.8276
479.6082	137.0258
479.7716	132.5369
479.9351	126.0085
480.0986	135.5697
480.2621	138.1758
480.4255	135.9867
480.589	133.303
480.7524	136.2507
480.9159	131.8731
481.0793	137.8852
481.2428	133.0869
481.4062	130.757
481.5696	130.2758
481.733	129.9411
481.8964	138.2509
482.0598	137.4417
482.2232	138.7491
482.3866	133.4804
482.55	130.0874
482.7134	130.3099
482.8768	136.7123
483.0401	140.76
483.2035	136.335
483.3668	134.8741
483.5302	128.919
483.6935	131.7006
483.8568	130.4545
484.0202	132.1472
484.1835	134.2567
484.3468	136.74
484.5101	132.8709
484.6734	133.7615
484.8367	132.8592
485	134.4322
485.1633	133.6312
485.3266	132.938
485.4899	129.0546
485.6531	124.8406
485.8164	123.6654
485.9796	118.2755
486.1429	108.8539
486.3061	117.4454
486.4694	121.8052
486.6326	124.2993
486.7958	130.8916
486.959	132.6356
487.1223	131.5155
487.2855	129.3403
487.4486	128.8761
487.6118	132.2082
487.775	137.2192
487.9382	133.8864
488.1014	137.5672
488.2646	145.4874
488.4277	141.8232
488.5909	135.6177
488.754	132.0053
488.9171	138.1518
489.0803	137.5439
489.2434	133.1292
489.4066	143.0933
489.5697	148.8821
489.7328	151.4641
489.8959	147.0114
490.059	142.3795
490.2221	140.4874
490.3852	143.3527
490.5482	146.9433
490.7113	148.7586
490.8744	147.3769
491.0374	141.8329
491.2005	137.8037
491.3636	137.8552
491.5266	138.5781
491.6896	142.6843
491.8527	141.0235
492.0157	132.9653
492.1787	137.8787
492.3417	134.9474
492.5047	133.9839
492.6677	137.0702
492.8307	150.8818
492.9937	154.2334
493.1567	152.3217
493.3196	149.2738
493.4826	147.8819
493.6456	144.8642
493.8085	145.7507
493.9715	141.3214
494.1344	145.5648
494.2974	149.4926
494.4603	149.4526
494.6232	146.756
494.7861	156.0813
494.949	147.4823
495.1119	154.3098
495.2748	153.0419
495.4377	151.02
495.6006	147.157
495.7635	142.8348
495.9264	144.018
496.0892	149.9035
496.2521	157.7636
496.4149	155.9711
496.5778	155.0592
496.7407	154.6931
496.9035	155.0713
497.0663	150.1784
497.2291	150.491
497.3919	148.7819
497.5547	152.2142
497.7176	149.2924
497.8804	153.0296
498.0432	152.6039
498.2059	146.6029
498.3687	145.0046
498.5315	147.1721
498.6942	156.6435
498.857	154.4543
499.0198	153.9494
499.1825	156.4665
499.3452	148.347
499.508	147.9512
499.6707	148.9216
499.8334	149.9788
499.9962	154.2716
500.1589	154.472
500.3216	152.3899
500.4843	151.3373
500.6469	153.0597
500.8096	149.3716
500.9723	152.41
501.135	156.7646
501.2976	153.3492
501.4603	142.7892
501.623	148.5071
501.7856	154.0516
501.9482	156.352
502.1109	152.0837
502.2735	154.6666
502.4361	158.508
502.5987	159.2216
502.7614	163.7552
502.924	160.5424
503.0865	157.5006
503.2491	160.6228
503.4117	161.6055
503.5743	163.0746
503.7368	161.981
503.8994	155.9103
504.062	150.4541
504.2245	154.6208
504.3871	158.6702
504.5496	163.7954
504.7121	168.9845
504.8746	164.6217
505.0372	154.8925
505.1997	156.0414
505.3622	167.0835
505.5247	171.0084
505.6872	172.5363
505.8497	174.2543
506.0121	179.7986
506.1746	173.0448
506.3371	174.2851
506.4995	172.7593
506.662	174.9978
506.8244	173.3475
506.9869	174.3374
507.1493	178.4194
507.3117	173.0674
507.4742	170.5915
507.6366	174.2635
507.799	173.8117
507.9614	175.6545
508.1238	170.8539
508.2862	164.0728
508.4485	170.8918
508.6109	174.3999
508.7733	180.3063
508.9357	184.8499
509.098	188.1607
509.2604	188.9745
509.4227	190.1297
509.5851	184.5414
509.7474	185.2303
509.9097	182.4222
510.072	180.0307
510.2343	180.0203
510.3966	183.4853
510.5589	183.8025
510.7212	187.0682
510.8835	187.2698
511.0458	183.334
511.2081	181.5178
511.3703	190.2012
511.5326	193.5736
511.6949	191.8295
511.8571	195.2955
512.0193	192.1406
512.1816	195.0271
512.3438	191.6208
512.506	183.6604
512.6682	185.2816
512.8304	182.8891
512.9926	183.4342
513.1548	183.6856
513.317	191.7556
513.4792	195.0657
513.6414	190.1585
513.8035	196.5467
513.9657	192.4565
514.1279	191.3504
514.29	195.447
514.4521	195.9645
514.6143	203.1223
514.7764	199.3322
514.9385	198.9918
515.1006	207.804
515.2628	202.717
515.4249	198.8327
515.587	203.6701
515.7491	199.9509
515.9111	205.3934
516.0732	211.7165
516.2353	203.916
516.3973	203.2442
