SPECTRUM DATA FILE
SpectrumCount:	1
PixelCount:	3648
UserName:	ToughBook User
SampleName:	
LightSource:	
Comments:	
DeviceName:	Qwave
DeviceManufacturer:	Broadcom
DeviceSerialNo:	11311

Name:	last spectrum
Date:	2024-05-02T14:53:17.5898716+02:00
ExposureTime:	0.02
TemporalAvg:	1
IntensityUnit:	normalizedCounts
CCDLoadLevel:	0.04835297
Temperature:	33.0318
DiagramColor:	200
ProcessingSteps:	335

Wavelength [nm]	Intensity1
334.421	6.777354
334.5891	7.340362
334.7573	10.32192
334.9254	14.93466
335.0935	15.09358
335.2616	11.3556
335.4297	9.141786
335.5978	9.69016
335.7659	14.53516
335.934	11.61424
336.1021	5.05807
336.2701	10.09049
336.4382	6.604156
336.6063	8.830798
336.7744	13.40384
336.9424	13.62135
337.1105	11.17286
337.2785	12.57844
337.4466	9.225392
337.6146	7.985542
337.7827	10.40707
337.9507	11.60435
338.1187	17.88141
338.2867	11.32013
338.4548	11.71825
338.6228	7.443758
338.7908	10.80605
338.9588	7.951256
339.1268	8.551288
339.2948	10.74145
339.4628	10.78239
339.6308	14.14594
339.7988	11.37099
339.9667	11.44577
340.1347	10.61981
340.3027	8.190659
340.4707	7.184931
340.6386	14.93415
340.8066	10.6247
340.9745	10.92715
341.1425	7.959368
341.3104	3.346138
341.4784	7.663494
341.6463	13.38077
341.8142	10.35658
341.9821	10.92519
342.1501	11.93449
342.318	12.29062
342.4859	7.545283
342.6538	8.469649
342.8217	8.775705
342.9896	15.01599
343.1575	10.18156
343.3254	11.24034
343.4933	13.24065
343.6612	9.791151
343.829	13.77455
343.9969	12.78261
344.1648	13.87923
344.3326	14.65987
344.5005	10.39509
344.6683	10.60531
344.8362	10.59648
345.004	12.9597
345.1719	14.26064
345.3397	17.42429
345.5075	13.01352
345.6754	10.40838
345.8432	10.4656
346.011	13.30002
346.1788	11.46114
346.3466	7.753802
346.5144	10.84971
346.6822	9.015497
346.85	14.16348
347.0178	11.75951
347.1856	12.18937
347.3534	11.99081
347.5211	8.928116
347.6889	8.408301
347.8567	10.61584
348.0244	12.29846
348.1922	14.20002
348.3599	16.4988
348.5277	12.7855
348.6954	6.394864
348.8632	6.500859
349.0309	8.507789
349.1986	12.68162
349.3663	17.07963
349.5341	14.76034
349.7018	13.07079
349.8695	12.24053
350.0372	11.96738
350.2049	8.496392
350.3726	8.933643
350.5403	8.678731
350.7079	7.810568
350.8756	5.045165
351.0433	8.089866
351.211	8.946185
351.3786	12.07564
351.5463	11.10631
351.714	10.5639
351.8816	9.574741
352.0493	8.075399
352.2169	13.64712
352.3846	13.98335
352.5522	18.01816
352.7198	11.73674
352.8875	11.67594
353.0551	13.86775
353.2227	16.66242
353.3903	18.0656
353.5579	10.38136
353.7255	11.41488
353.8931	7.081932
354.0607	12.5396
354.2283	11.5756
354.3958	13.91229
354.5634	12.87214
354.731	15.34566
354.8986	15.4675
355.0661	15.31112
355.2337	12.32407
355.4012	10.60742
355.5688	12.40093
355.7363	15.06394
355.9039	13.34045
356.0714	11.04731
356.239	8.806101
356.4065	10.62965
356.574	13.51649
356.7415	12.0393
356.909	8.537798
357.0765	11.93941
357.244	14.67705
357.4115	16.19286
357.579	15.0354
357.7465	12.81234
357.914	12.81134
358.0815	13.88648
358.249	14.95792
358.4164	10.87197
358.5839	12.42795
358.7513	13.37192
358.9188	13.07528
359.0862	11.95136
359.2537	10.76915
359.4211	15.14413
359.5886	11.47793
359.756	12.56704
359.9234	14.28225
360.0909	13.10118
360.2583	12.16535
360.4257	14.40728
360.5931	13.6181
360.7605	13.25531
360.9279	11.95489
361.0953	13.87169
361.2627	11.98514
361.4301	13.89779
361.5974	16.63417
361.7648	12.70457
361.9322	13.88657
362.0995	11.55426
362.2669	14.57169
362.4343	15.46026
362.6016	14.66749
362.769	16.49921
362.9363	19.2388
363.1036	13.63494
363.271	13.5232
363.4383	14.31962
363.6056	9.609531
363.7729	16.60911
363.9402	16.5155
364.1075	18.63589
364.2748	14.93752
364.4421	14.34824
364.6094	18.20881
364.7767	17.98489
364.944	14.47811
365.1113	19.80071
365.2786	22.34984
365.4458	15.83726
365.6131	15.33271
365.7803	19.24693
365.9476	18.48831
366.1148	17.2561
366.2821	15.20113
366.4493	16.53193
366.6166	17.53452
366.7838	15.19634
366.951	14.51973
367.1182	12.36094
367.2855	20.09911
367.4527	18.45943
367.6199	17.89503
367.7871	14.98723
367.9543	12.64234
368.1215	14.50545
368.2886	18.557
368.4558	17.8345
368.623	14.6479
368.7902	15.60047
368.9573	14.21654
369.1245	11.30405
369.2917	11.51676
369.4588	13.85922
369.6259	11.56691
369.7931	14.1721
369.9602	13.83456
370.1274	15.63561
370.2945	16.47681
370.4616	17.57272
370.6287	14.10215
370.7958	8.96028
370.963	14.78956
371.1301	17.35252
371.2971	18.76011
371.4643	19.68859
371.6313	18.61535
371.7984	19.59048
371.9655	17.31008
372.1326	18.57703
372.2997	17.23849
372.4667	19.13794
372.6338	14.73659
372.8008	21.20342
372.9679	14.20326
373.1349	18.17237
373.3019	15.10506
373.469	15.7357
373.636	16.13456
373.803	14.27132
373.9701	19.41401
374.1371	13.4655
374.3041	16.78502
374.4711	15.5163
374.6381	15.89374
374.8051	17.72207
374.9721	18.84036
375.1391	22.35774
375.3061	17.15261
375.473	20.26491
375.64	19.29109
375.8069	16.60465
375.9739	20.36264
376.1409	19.46456
376.3078	16.25354
376.4748	15.17992
376.6417	14.5788
376.8087	17.15761
376.9756	21.12201
377.1425	16.32101
377.3094	16.19438
377.4763	14.60195
377.6432	17.31004
377.8102	18.47509
377.9771	15.41792
378.144	16.05805
378.3109	17.74926
378.4777	16.81599
378.6446	18.07128
378.8115	17.11961
378.9784	14.97649
379.1452	16.34405
379.3121	16.36712
379.4789	14.5982
379.6458	11.17343
379.8127	11.31023
379.9795	14.41074
380.1463	17.17746
380.3131	18.28099
380.48	15.92655
380.6468	17.23027
380.8136	16.78506
380.9804	20.79539
381.1472	16.6002
381.314	18.83424
381.4808	18.75914
381.6476	18.4679
381.8144	17.61042
381.9812	20.87458
382.148	22.17241
382.3147	17.95998
382.4815	18.78611
382.6483	16.30857
382.815	19.54677
382.9818	13.74139
383.1485	15.53078
383.3153	17.16715
383.482	11.68917
383.6487	15.05023
383.8155	14.69899
383.9822	18.31555
384.1489	16.05085
384.3156	16.96081
384.4823	17.15339
384.649	18.98519
384.8157	17.08568
384.9824	22.45056
385.1491	18.16626
385.3158	21.35887
385.4825	18.99441
385.6491	16.85549
385.8158	12.89399
385.9825	16.33511
386.1491	18.33538
386.3157	22.46436
386.4824	23.8009
386.649	23.163
386.8157	15.04698
386.9823	19.36778
387.1489	23.50653
387.3156	19.56187
387.4821	20.63097
387.6488	23.0201
387.8154	19.56318
387.982	21.44205
388.1486	22.83099
388.3152	16.47182
388.4818	23.73356
388.6483	24.53105
388.8149	19.91298
388.9815	19.09552
389.148	21.17767
389.3146	22.7371
389.4811	23.15311
389.6477	16.14396
389.8142	24.0216
389.9808	23.74473
390.1473	19.56371
390.3138	20.0871
390.4804	21.08208
390.6469	20.47592
390.8134	24.13106
390.9799	22.55712
391.1464	22.30875
391.3129	26.87402
391.4794	24.58308
391.6459	20.84166
391.8124	20.14847
391.9789	21.55299
392.1453	27.82785
392.3118	26.20967
392.4782	18.25652
392.6447	19.3157
392.8112	17.22
392.9776	19.11511
393.144	19.82317
393.3105	19.42634
393.4769	19.18733
393.6433	18.58413
393.8098	18.77824
393.9762	21.09291
394.1426	24.32744
394.309	24.21635
394.4754	19.74936
394.6418	22.17094
394.8082	21.84808
394.9746	22.70678
395.141	26.8825
395.3073	22.11055
395.4737	25.68544
395.64	25.85495
395.8064	25.9897
395.9728	26.4826
396.1391	20.94182
396.3055	19.58476
396.4718	21.54219
396.6381	14.54014
396.8045	13.52324
396.9708	17.36303
397.1371	20.79461
397.3034	20.63343
397.4697	29.56545
397.636	31.62402
397.8023	27.54236
397.9686	23.24541
398.1349	22.20722
398.3012	27.91638
398.4675	28.72211
398.6337	29.9966
398.8	28.10162
398.9662	28.42279
399.1325	32.01988
399.2988	30.96842
399.465	31.32066
399.6313	25.35863
399.7975	28.60224
399.9637	30.25401
400.1299	29.31831
400.2961	30.39915
400.4624	28.85336
400.6286	28.27065
400.7948	27.92775
400.961	27.89656
401.1272	33.61045
401.2934	28.2309
401.4595	26.4767
401.6257	26.24898
401.7919	24.56087
401.9581	27.01052
402.1242	27.05709
402.2904	32.45692
402.4565	32.78821
402.6227	32.34836
402.7888	27.06842
402.955	27.99526
403.1211	27.43289
403.2872	28.4639
403.4533	28.79577
403.6194	30.60659
403.7856	28.58536
403.9517	28.73244
404.1177	28.14591
404.2838	29.41876
404.4499	31.22907
404.616	24.79602
404.7821	29.20417
404.9482	30.32404
405.1142	33.15242
405.2803	32.21066
405.4464	32.49905
405.6124	29.90677
405.7784	27.30792
405.9445	24.94654
406.1105	26.5136
406.2766	28.50607
406.4426	27.88741
406.6086	29.15771
406.7746	27.04322
406.9406	32.85614
407.1066	33.08977
407.2726	29.59708
407.4386	30.4511
407.6046	31.42074
407.7706	30.54342
407.9366	32.11275
408.1025	34.90854
408.2685	35.52414
408.4344	35.44257
408.6004	32.87217
408.7664	39.14746
408.9323	33.4238
409.0983	35.42968
409.2642	39.68628
409.4301	39.50894
409.596	38.62118
409.762	38.01259
409.9279	34.07357
410.0938	38.29078
410.2597	37.20165
410.4256	37.76072
410.5915	34.06449
410.7574	31.65504
410.9232	36.56483
411.0891	35.21848
411.255	40.66128
411.4209	41.21508
411.5867	42.49165
411.7526	41.10326
411.9184	40.09713
412.0843	36.34242
412.2501	43.5311
412.4159	43.61296
412.5818	42.95573
412.7476	39.12652
412.9134	35.85148
413.0792	39.63669
413.245	34.2385
413.4108	33.12736
413.5766	39.73861
413.7424	41.09065
413.9082	43.21755
414.074	39.61129
414.2397	36.29467
414.4055	37.09031
414.5713	35.02858
414.737	42.53295
414.9028	39.98352
415.0685	41.54066
415.2343	40.90094
415.4	39.39058
415.5658	41.25666
415.7315	39.91814
415.8972	42.91509
416.0629	41.39299
416.2286	37.957
416.3943	38.30669
416.56	37.29098
416.7257	37.49226
416.8914	42.99923
417.0571	45.76366
417.2228	39.24503
417.3884	38.504
417.5541	39.09274
417.7198	41.45844
417.8854	39.94984
418.0511	37.61944
418.2167	44.44094
418.3824	40.6897
418.548	45.78575
418.7136	41.709
418.8792	38.25235
419.0449	44.79805
419.2105	46.38461
419.3761	39.81294
419.5417	38.04692
419.7073	45.8102
419.8729	43.43867
420.0385	39.59319
420.204	39.3936
420.3696	45.33446
420.5352	44.76986
420.7007	42.43549
420.8663	44.61055
421.0319	43.65176
421.1974	44.05029
421.3629	46.79118
421.5285	42.37197
421.694	47.76578
421.8595	43.75759
422.0251	48.41594
422.1906	45.65234
422.3561	42.57885
422.5216	45.23008
422.6871	43.32623
422.8526	43.6236
423.0181	46.72283
423.1835	50.81092
423.349	49.71711
423.5145	43.5739
423.68	40.98594
423.8454	48.96853
424.0109	50.23823
424.1763	46.4112
424.3418	50.70353
424.5072	55.60669
424.6726	48.72935
424.838	44.52151
425.0035	48.85667
425.1689	47.39203
425.3343	49.18567
425.4997	47.19221
425.6651	51.06648
425.8305	53.00013
425.9959	51.1512
426.1613	48.56947
426.3267	48.73867
426.492	54.14642
426.6574	51.75051
426.8228	51.42482
426.9881	46.41362
427.1534	45.81531
427.3188	50.51979
427.4841	47.78872
427.6495	51.69986
427.8148	51.4397
427.9801	48.44261
428.1454	51.78701
428.3107	50.85425
428.476	51.17377
428.6414	50.33302
428.8066	50.12616
428.9719	48.30675
429.1372	47.2274
429.3025	51.88219
429.4678	47.91321
429.633	40.27044
429.7983	46.72015
429.9636	44.75133
430.1288	41.77228
430.294	39.58108
430.4593	39.80764
430.6245	43.27517
430.7897	38.82145
430.955	40.79916
431.1202	44.35424
431.2854	45.00071
431.4506	48.28111
431.6158	52.81325
431.781	50.87848
431.9462	56.46142
432.1114	55.71119
432.2766	53.14704
432.4417	47.44191
432.6069	46.69722
432.772	48.15323
432.9372	54.26014
433.1024	58.21742
433.2675	56.07509
433.4326	58.0116
433.5977	58.4559
433.7629	50.64198
433.928	47.28565
434.0931	44.42237
434.2582	46.12077
434.4233	49.61029
434.5884	52.12953
434.7535	57.79494
434.9186	55.62075
435.0837	49.11692
435.2488	52.92718
435.4138	52.45094
435.5789	55.6083
435.744	59.55236
435.909	62.84489
436.0741	59.1275
436.2391	59.27967
436.4042	56.95972
436.5692	58.73957
436.7342	62.53179
436.8992	63.66952
437.0643	58.03647
437.2293	54.30045
437.3943	59.22237
437.5593	62.20755
437.7243	60.63028
437.8893	64.5248
438.0542	65.93415
438.2192	55.19321
438.3842	57.61046
438.5491	62.02678
438.7141	58.5868
438.8791	56.94196
439.044	60.12184
439.209	62.56081
439.3739	63.81788
439.5388	66.7663
439.7037	63.37661
439.8687	62.46379
440.0336	61.71712
440.1985	62.61705
440.3634	57.96345
440.5283	58.50261
440.6932	56.64588
440.8581	61.26169
441.0229	63.12496
441.1878	66.97137
441.3527	70.30016
441.5175	65.30391
441.6824	66.45196
441.8472	66.93609
442.0121	78.6049
442.1769	67.27522
442.3418	62.50568
442.5066	61.20864
442.6714	65.45385
442.8362	68.64684
443.001	69.06965
443.1659	63.56947
443.3307	66.75595
443.4955	63.19609
443.6602	67.29308
443.825	66.14174
443.9898	67.34417
444.1546	68.35872
444.3193	65.58659
444.4841	64.14214
444.6488	69.00133
444.8136	73.63827
444.9783	80.05423
445.1431	75.91145
445.3078	69.78802
445.4725	67.76242
445.6372	66.3217
445.802	64.50562
445.9667	60.02441
446.1314	62.40142
446.2961	66.7354
446.4608	62.1309
446.6255	68.58771
446.7901	64.40589
446.9548	64.04646
447.1195	68.15517
447.2841	80.58578
447.4488	73.90795
447.6134	73.62341
447.7781	75.1393
447.9427	72.65026
448.1074	69.26113
448.272	69.46979
448.4366	72.94814
448.6012	74.67957
448.7658	72.96822
448.9305	72.10333
449.095	69.74757
449.2596	74.51016
449.4242	74.12218
449.5888	72.2476
449.7534	71.20293
449.9179	75.11185
450.0825	73.03438
450.2471	73.29469
450.4116	78.72102
450.5762	83.00568
450.7407	80.57775
450.9052	78.00901
451.0698	78.93733
451.2343	80.65496
451.3988	76.64286
451.5633	76.96379
451.7278	78.4932
451.8923	80.61085
452.0568	77.35017
452.2213	78.26311
452.3858	78.76971
452.5503	81.84959
452.7148	76.00804
452.8792	73.14841
453.0437	76.70179
453.2081	80.51048
453.3726	76.58179
453.537	79.40491
453.7015	83.74951
453.8659	84.09736
454.0303	83.43391
454.1947	80.56608
454.3592	83.93495
454.5236	85.31895
454.688	85.05489
454.8524	81.19372
455.0168	78.3063
455.1811	80.77589
455.3455	80.67281
455.5099	82.866
455.6743	78.47166
455.8386	78.061
456.003	85.17218
456.1673	89.38147
456.3317	89.03542
456.496	82.46445
456.6603	84.79568
456.8246	90.19485
456.989	85.64794
457.1533	84.93245
457.3176	87.43388
457.4819	87.26699
457.6462	87.94767
457.8105	86.60534
457.9748	87.58415
458.1391	84.42425
458.3033	87.2478
458.4676	84.714
458.6319	84.31144
458.7961	86.00247
458.9604	87.43182
459.1246	84.58626
459.2888	84.37238
459.4531	78.89529
459.6173	83.60871
459.7815	83.06368
459.9457	83.8394
460.11	85.7461
460.2741	85.84937
460.4384	80.99355
460.6025	80.26982
460.7667	84.0047
460.9309	84.66565
461.0951	88.66548
461.2592	82.83021
461.4234	86.97833
461.5876	85.79968
461.7517	87.89092
461.9159	91.69887
462.08	90.33902
462.2441	86.43914
462.4082	87.90311
462.5724	88.63705
462.7365	85.96154
462.9006	86.30629
463.0647	90.25636
463.2288	83.82552
463.3929	88.72595
463.557	88.12465
463.721	85.14406
463.8851	82.43851
464.0492	84.71378
464.2132	90.50979
464.3773	86.78506
464.5414	86.73576
464.7054	90.0753
464.8694	82.25135
465.0334	83.09814
465.1975	83.71951
465.3615	88.0334
465.5255	90.4003
465.6895	88.37753
465.8535	88.34296
466.0175	85.46282
466.1815	82.30527
466.3455	88.64924
466.5095	88.95727
466.6734	82.29631
466.8374	88.20578
467.0014	88.16612
467.1653	87.79231
467.3293	87.02874
467.4932	84.14298
467.6571	89.2267
467.8211	89.82542
467.985	82.2476
468.1489	85.71978
468.3128	84.7879
468.4767	91.30696
468.6406	92.44939
468.8045	92.44453
468.9684	91.72724
469.1323	89.44769
469.2962	96.13663
469.46	96.21216
469.6239	91.89834
469.7878	96.02736
469.9516	88.03733
470.1154	91.46683
470.2793	90.43958
470.4431	86.53073
470.607	89.69578
470.7708	90.13631
470.9346	92.37496
471.0984	93.63554
471.2622	91.95036
471.426	93.25375
471.5898	97.08298
471.7536	96.22356
471.9174	96.18442
472.0811	94.2635
472.2449	97.1392
472.4087	92.0154
472.5724	92.46586
472.7362	92.95797
472.8999	89.28584
473.0637	91.72495
473.2274	95.91373
473.3911	91.82317
473.5548	91.55307
473.7185	92.14499
473.8822	90.15347
474.0459	90.28553
474.2096	97.53368
474.3733	95.18491
474.537	97.10055
474.7007	96.17884
474.8643	96.15979
475.028	95.23398
475.1917	97.5461
475.3553	93.64597
475.519	94.39205
475.6826	89.26659
475.8463	91.73022
476.0099	93.53909
476.1735	95.97119
476.3371	95.30641
476.5007	95.02395
476.6643	97.58445
476.8279	91.63115
476.9915	97.52612
477.1551	95.3056
477.3187	93.36201
477.4823	101.69
477.6458	99.57636
477.8094	95.10988
477.9729	99.2225
478.1365	99.82046
478.3	93.62054
478.4636	95.43375
478.6271	94.45325
478.7906	97.02469
478.9541	95.40121
479.1176	100.5267
479.2812	104.181
479.4447	98.75826
479.6082	96.26006
479.7716	98.74878
479.9351	95.037
480.0986	96.15263
480.2621	97.57625
480.4255	97.64787
480.589	99.80899
480.7524	96.52826
480.9159	94.21468
481.0793	97.69133
481.2428	99.14793
481.4062	100.2293
481.5696	101.4571
481.733	93.2095
481.8964	97.98724
482.0598	100.5894
482.2232	94.34738
482.3866	92.93229
482.55	98.35177
482.7134	97.83844
482.8768	103.2517
483.0401	96.97771
483.2035	101.976
483.3668	103.6443
483.5302	100.1909
483.6935	97.68638
483.8568	90.38065
484.0202	92.71774
484.1835	91.81266
484.3468	99.61263
484.5101	96.05505
484.6734	93.80875
484.8367	97.93095
485	97.86944
485.1633	100.3839
485.3266	91.30299
485.4899	92.41703
485.6531	89.2131
485.8164	87.60732
485.9796	82.93255
486.1429	81.25198
486.3061	84.49469
486.4694	84.0935
486.6326	91.34436
486.7958	94.86769
486.959	92.36114
487.1223	90.66787
487.2855	86.50324
487.4486	93.37187
487.6118	100.7683
487.775	101.6027
487.9382	99.03375
488.1014	100.6566
488.2646	105.8376
488.4277	99.86263
488.5909	97.56847
488.754	100.4113
488.9171	92.55287
489.0803	90.10481
489.2434	94.88356
489.4066	99.15195
489.5697	102.6735
489.7328	108.9643
489.8959	106.6577
490.059	104.7894
490.2221	104.2588
490.3852	102.4846
490.5482	100.4789
490.7113	92.65015
490.8744	95.25607
491.0374	97.22583
491.2005	95.08688
491.3636	101.6234
491.5266	106.2541
491.6896	100.9444
491.8527	95.72647
492.0157	97.69136
492.1787	96.34669
492.3417	102.3195
492.5047	99.58308
492.6677	106.6501
492.8307	106.0123
492.9937	104.5658
493.1567	102.8881
493.3196	108.4887
493.4826	108.8191
493.6456	103.1698
493.8085	100.6768
493.9715	97.99554
494.1344	105.1082
494.2974	113.5423
494.4603	103.9679
494.6232	100.5623
494.7861	111.3841
494.949	106.963
495.1119	113.3492
495.2748	109.1685
495.4377	104.1811
495.6006	97.71752
495.7635	98.80852
495.9264	99.41003
496.0892	107.4151
496.2521	114.4815
496.4149	109.1752
496.5778	109.7979
496.7407	110.9899
496.9035	109.9758
497.0663	108.6497
497.2291	108.8154
497.3919	108.0989
497.5547	112.4988
497.7176	111.1629
497.8804	110.9494
498.0432	106.349
498.2059	100.4197
498.3687	102.0833
498.5315	105.8414
498.6942	114.5977
498.857	114.5604
499.0198	111.715
499.1825	110.1757
499.3452	108.6842
499.508	110.0108
499.6707	109.5645
499.8334	109.5864
499.9962	109.7299
500.1589	106.2263
500.3216	104.4974
500.4843	103.4465
500.6469	105.834
500.8096	110.0242
500.9723	110.0454
501.135	102.3696
501.2976	100.6765
501.4603	108.4731
501.623	106.4183
501.7856	106.1674
501.9482	109.3503
502.1109	111.7284
502.2735	115.8273
502.4361	116.6057
502.5987	117.4556
502.7614	114.2924
502.924	116.9455
503.0865	116.7016
503.2491	115.2048
503.4117	113.2033
503.5743	115.1185
503.7368	111.5232
503.8994	106.3048
504.062	102.6548
504.2245	109.7091
504.3871	112.7171
504.5496	122.2271
504.7121	117.4603
504.8746	122.0369
505.0372	118.5785
505.1997	114.1951
505.3622	120.1293
505.5247	119.4292
505.6872	120.482
505.8497	124.8693
506.0121	122.6457
506.1746	129.7759
506.3371	119.2374
506.4995	117.0471
506.662	122.1273
506.8244	121.496
506.9869	125.5587
507.1493	121.9931
507.3117	121.0738
507.4742	120.1043
507.6366	121.0566
507.799	128.5195
507.9614	122.6817
508.1238	120.5519
508.2862	124.3596
508.4485	129.1825
508.6109	129.3156
508.7733	130.5975
508.9357	130.7724
509.098	129.0328
509.2604	132.2319
509.4227	129.8865
509.5851	134.1952
509.7474	127.7975
509.9097	129.0011
510.072	130.5151
510.2343	138.4608
510.3966	135.3159
510.5589	134.4555
510.7212	131.5577
510.8835	129.3189
511.0458	135.8453
511.2081	131.3869
511.3703	137.6608
511.5326	140.7565
511.6949	136.7645
511.8571	141.4343
512.0193	142.8685
512.1816	134.5872
512.3438	134.5922
512.506	130.0791
512.6682	130.4979
512.8304	134.8411
512.9926	140.6191
513.1548	134.1607
513.317	139.4218
513.4792	140.6386
513.6414	135.6019
513.8035	133.9583
513.9657	136.7612
514.1279	136.9147
514.29	139.8393
514.4521	135.3903
514.6143	129.7373
514.7764	140.1717
514.9385	140.5245
515.1006	139.9896
515.2628	142.2402
515.4249	144.2713
515.587	148.4669
515.7491	144.567
515.9111	139.4661
516.0732	139.9903
516.2353	142.7059
516.3973	135.6135
