SPECTRUM DATA FILE
SpectrumCount:	1
PixelCount:	3648
UserName:	ToughBook User
SampleName:	
LightSource:	
Comments:	
DeviceName:	Qwave
DeviceManufacturer:	Broadcom
DeviceSerialNo:	11311

Name:	last spectrum
Date:	2024-05-02T14:52:45.6949999+02:00
ExposureTime:	0.02
TemporalAvg:	1
IntensityUnit:	normalizedCounts
CCDLoadLevel:	0.05581978
Temperature:	33.14276
DiagramColor:	200
ProcessingSteps:	335

Wavelength [nm]	Intensity1
334.421	9.525702
334.5891	10.98707
334.7573	6.18978
334.9254	8.725842
335.0935	14.49032
335.2616	12.55725
335.4297	10.32692
335.5978	7.384963
335.7659	9.052167
335.934	10.19007
336.1021	6.128818
336.2701	5.151494
336.4382	11.66987
336.6063	7.605447
336.7744	6.948573
336.9424	9.846344
337.1105	10.14732
337.2785	6.563977
337.4466	10.50755
337.6146	11.22942
337.7827	11.34373
337.9507	7.775562
338.1187	9.741664
338.2867	4.700935
338.4548	4.761733
338.6228	7.250666
338.7908	9.178773
338.9588	7.041827
339.1268	5.827168
339.2948	9.887311
339.4628	8.502687
339.6308	6.154192
339.7988	11.01978
339.9667	10.1984
340.1347	12.80504
340.3027	15.13901
340.4707	10.51365
340.6386	7.380915
340.8066	6.356692
340.9745	7.616133
341.1425	9.285911
341.3104	10.91022
341.4784	12.86696
341.6463	10.95393
341.8142	7.851559
341.9821	11.17529
342.1501	11.40001
342.318	11.4167
342.4859	10.13858
342.6538	9.160885
342.8217	10.92366
342.9896	9.758974
343.1575	9.563727
343.3254	9.361447
343.4933	10.69689
343.6612	14.86567
343.829	9.807897
343.9969	8.195612
344.1648	10.97972
344.3326	11.61238
344.5005	15.30163
344.6683	6.66243
344.8362	11.97468
345.004	7.586428
345.1719	14.17746
345.3397	8.655352
345.5075	10.36739
345.6754	11.62842
345.8432	10.68428
346.011	11.01464
346.1788	8.04047
346.3466	10.19974
346.5144	10.26493
346.6822	9.287588
346.85	6.443979
347.0178	8.932281
347.1856	11.39446
347.3534	10.27744
347.5211	11.13385
347.6889	9.08887
347.8567	9.90236
348.0244	9.947015
348.1922	8.156561
348.3599	8.934209
348.5277	13.16168
348.6954	10.40479
348.8632	15.27385
349.0309	8.447459
349.1986	4.97439
349.3663	9.550304
349.5341	8.487659
349.7018	10.17399
349.8695	13.21849
350.0372	12.17691
350.2049	10.26155
350.3726	11.25017
350.5403	9.054037
350.7079	10.62375
350.8756	12.98351
351.0433	15.08335
351.211	13.40741
351.3786	15.89597
351.5463	9.874649
351.714	12.1133
351.8816	12.39775
352.0493	10.16028
352.2169	9.171615
352.3846	11.03222
352.5522	12.47828
352.7198	14.68849
352.8875	12.87051
353.0551	8.546774
353.2227	13.75574
353.3903	12.27869
353.5579	13.02992
353.7255	17.14886
353.8931	13.4295
354.0607	13.85965
354.2283	15.38806
354.3958	9.946653
354.5634	14.81474
354.731	14.98094
354.8986	14.76256
355.0661	8.911423
355.2337	13.99967
355.4012	16.70519
355.5688	14.55804
355.7363	13.48378
355.9039	12.83118
356.0714	11.25841
356.239	11.53842
356.4065	12.32236
356.574	9.846179
356.7415	13.62205
356.909	11.11845
357.0765	13.31103
357.244	11.65485
357.4115	9.85644
357.579	10.20227
357.7465	10.53337
357.914	8.215899
358.0815	6.840578
358.249	11.85978
358.4164	12.48453
358.5839	13.26285
358.7513	15.63323
358.9188	16.89286
359.0862	14.22293
359.2537	11.09077
359.4211	14.62362
359.5886	14.8859
359.756	10.42747
359.9234	14.96027
360.0909	14.30683
360.2583	17.01089
360.4257	13.63299
360.5931	17.90838
360.7605	12.17035
360.9279	13.96378
361.0953	11.71624
361.2627	12.71283
361.4301	12.98222
361.5974	14.36452
361.7648	13.92259
361.9322	11.90504
362.0995	11.08037
362.2669	12.37931
362.4343	15.90172
362.6016	15.16248
362.769	13.22005
362.9363	15.94921
363.1036	12.44702
363.271	15.93823
363.4383	12.0097
363.6056	17.03282
363.7729	12.18313
363.9402	14.82327
364.1075	9.111078
364.2748	15.84585
364.4421	16.17702
364.6094	12.87793
364.7767	17.51116
364.944	15.66738
365.1113	17.77271
365.2786	14.29171
365.4458	18.40469
365.6131	14.72856
365.7803	15.86607
365.9476	18.2716
366.1148	17.15804
366.2821	11.09993
366.4493	12.62469
366.6166	13.0807
366.7838	18.63095
366.951	16.07313
367.1182	17.28368
367.2855	15.86706
367.4527	11.8555
367.6199	11.38878
367.7871	13.97412
367.9543	16.30853
368.1215	11.29842
368.2886	17.30132
368.4558	16.61811
368.623	15.80203
368.7902	14.89417
368.9573	16.03536
369.1245	16.03017
369.2917	17.46456
369.4588	16.49529
369.6259	16.97528
369.7931	19.23992
369.9602	14.61276
370.1274	13.97197
370.2945	15.67656
370.4616	12.67167
370.6287	17.7213
370.7958	15.6752
370.963	10.52073
371.1301	11.64141
371.2971	19.28582
371.4643	17.70106
371.6313	17.95667
371.7984	15.86312
371.9655	16.82306
372.1326	17.65315
372.2997	13.50257
372.4667	17.24357
372.6338	15.56027
372.8008	13.36034
372.9679	14.22441
373.1349	12.79119
373.3019	16.46776
373.469	21.10231
373.636	16.34889
373.803	16.34202
373.9701	19.40179
374.1371	21.44059
374.3041	16.39691
374.4711	14.24083
374.6381	16.64675
374.8051	17.88644
374.9721	14.99082
375.1391	16.37848
375.3061	16.70389
375.473	15.73159
375.64	19.79111
375.8069	20.5193
375.9739	17.53592
376.1409	14.83129
376.3078	18.39798
376.4748	16.81171
376.6417	17.4521
376.8087	17.47399
376.9756	18.74278
377.1425	15.65099
377.3094	11.86566
377.4763	15.54829
377.6432	18.23953
377.8102	21.15067
377.9771	18.93964
378.144	17.86604
378.3109	16.06045
378.4777	17.74735
378.6446	15.86327
378.8115	15.41671
378.9784	19.88553
379.1452	17.42871
379.3121	14.38052
379.4789	14.89645
379.6458	17.47832
379.8127	12.9268
379.9795	15.07932
380.1463	15.71794
380.3131	17.76961
380.48	20.89969
380.6468	19.29018
380.8136	18.05381
380.9804	17.0592
381.1472	16.1722
381.314	15.21873
381.4808	17.70229
381.6476	14.93886
381.8144	14.95071
381.9812	14.79496
382.148	13.55312
382.3147	13.24481
382.4815	12.03385
382.6483	12.37257
382.815	16.3252
382.9818	11.2394
383.1485	9.45563
383.3153	12.91827
383.482	16.27189
383.6487	12.12985
383.8155	17.11072
383.9822	14.91318
384.1489	17.30484
384.3156	20.99735
384.4823	17.19056
384.649	21.76965
384.8157	19.95816
384.9824	19.23502
385.1491	14.64708
385.3158	15.41778
385.4825	18.4274
385.6491	18.96195
385.8158	22.31318
385.9825	18.99221
386.1491	17.41253
386.3157	18.01044
386.4824	18.61534
386.649	21.37214
386.8157	21.41482
386.9823	20.04268
387.1489	18.71946
387.3156	18.14455
387.4821	18.9702
387.6488	21.34849
387.8154	22.14456
387.982	16.0738
388.1486	19.24673
388.3152	17.82157
388.4818	19.41753
388.6483	19.63026
388.8149	17.54923
388.9815	19.70499
389.148	16.43469
389.3146	20.85209
389.4811	19.54822
389.6477	17.7356
389.8142	22.22242
389.9808	16.56614
390.1473	18.3048
390.3138	21.07743
390.4804	22.50606
390.6469	20.25277
390.8134	16.37692
390.9799	19.51787
391.1464	25.85025
391.3129	23.07538
391.4794	19.72509
391.6459	21.18184
391.8124	18.46324
391.9789	20.34355
392.1453	16.18304
392.3118	21.77957
392.4782	22.23945
392.6447	20.78159
392.8112	21.6111
392.9776	20.95438
393.144	15.75466
393.3105	15.67168
393.4769	15.0061
393.6433	18.37846
393.8098	16.26692
393.9762	17.25121
394.1426	21.8945
394.309	23.63924
394.4754	22.73466
394.6418	19.8202
394.8082	22.53898
394.9746	25.41914
395.141	26.66581
395.3073	23.39717
395.4737	21.50839
395.64	26.59558
395.8064	22.28559
395.9728	19.84447
396.1391	25.48769
396.3055	20.44819
396.4718	18.75385
396.6381	22.28881
396.8045	23.09013
396.9708	24.60417
397.1371	27.50425
397.3034	24.80099
397.4697	22.23716
397.636	21.99405
397.8023	25.64922
397.9686	29.00458
398.1349	31.00372
398.3012	29.2035
398.4675	27.84044
398.6337	24.06583
398.8	31.95422
398.9662	27.66843
399.1325	29.12392
399.2988	33.58638
399.465	30.95173
399.6313	28.41252
399.7975	25.58687
399.9637	31.2168
400.1299	30.66158
400.2961	28.79494
400.4624	23.18414
400.6286	29.64606
400.7948	26.04095
400.961	28.87095
401.1272	20.53992
401.2934	28.8971
401.4595	30.48227
401.6257	31.37933
401.7919	29.46393
401.9581	29.27423
402.1242	30.7125
402.2904	30.07711
402.4565	39.95824
402.6227	28.4189
402.7888	24.42376
402.955	24.65435
403.1211	28.40136
403.2872	27.13296
403.4533	26.525
403.6194	27.952
403.7856	29.70639
403.9517	32.83544
404.1177	30.88725
404.2838	28.30889
404.4499	26.92398
404.616	28.57449
404.7821	30.65443
404.9482	32.81006
405.1142	29.10177
405.2803	27.17497
405.4464	30.93044
405.6124	29.72823
405.7784	30.89349
405.9445	32.16342
406.1105	30.82769
406.2766	32.5081
406.4426	36.16651
406.6086	31.20171
406.7746	31.576
406.9406	33.28641
407.1066	30.9837
407.2726	32.49
407.4386	32.65529
407.6046	37.07221
407.7706	37.05418
407.9366	33.50522
408.1025	35.5468
408.2685	36.89412
408.4344	36.79635
408.6004	37.61978
408.7664	34.86041
408.9323	40.15425
409.0983	32.9934
409.2642	39.27126
409.4301	35.71466
409.596	39.1437
409.762	35.7252
409.9279	37.28848
410.0938	36.802
410.2597	37.2476
410.4256	36.97707
410.5915	38.43312
410.7574	35.6952
410.9232	34.91685
411.0891	38.42609
411.255	40.41273
411.4209	45.17656
411.5867	38.70854
411.7526	39.95301
411.9184	40.64777
412.0843	41.21134
412.2501	42.74606
412.4159	40.82583
412.5818	44.08908
412.7476	38.73184
412.9134	37.03257
413.0792	37.224
413.245	40.66048
413.4108	38.34721
413.5766	40.4895
413.7424	43.62159
413.9082	47.1904
414.074	49.58369
414.2397	45.26004
414.4055	38.1325
414.5713	38.41159
414.737	42.98967
414.9028	42.83558
415.0685	39.78727
415.2343	41.80631
415.4	40.21998
415.5658	33.9809
415.7315	38.10525
415.8972	38.16369
416.0629	40.88589
416.2286	47.04833
416.3943	46.01382
416.56	43.2782
416.7257	36.17675
416.8914	39.13513
417.0571	40.211
417.2228	38.89096
417.3884	38.86297
417.5541	39.80971
417.7198	37.98328
417.8854	40.56358
418.0511	45.45547
418.2167	44.28878
418.3824	42.25941
418.548	42.40944
418.7136	45.55103
418.8792	42.81873
419.0449	42.14435
419.2105	42.43704
419.3761	47.98506
419.5417	45.54214
419.7073	36.91786
419.8729	39.65186
420.0385	39.50792
420.204	40.9367
420.3696	39.63084
420.5352	43.34433
420.7007	48.70886
420.8663	49.23249
421.0319	46.66367
421.1974	45.09247
421.3629	50.92778
421.5285	47.67535
421.694	50.28245
421.8595	45.84926
422.0251	46.14267
422.1906	42.63773
422.3561	50.0276
422.5216	46.0826
422.6871	42.55433
422.8526	44.31892
423.0181	42.61037
423.1835	50.60006
423.349	47.79668
423.5145	47.84206
423.68	47.5449
423.8454	47.11044
424.0109	46.75064
424.1763	49.88603
424.3418	48.94199
424.5072	51.56458
424.6726	55.99292
424.838	51.50288
425.0035	43.30313
425.1689	52.86075
425.3343	52.8012
425.4997	49.47971
425.6651	49.37702
425.8305	50.34608
425.9959	50.73406
426.1613	48.4956
426.3267	55.37264
426.492	47.35211
426.6574	48.22741
426.8228	45.06909
426.9881	48.45816
427.1534	49.89425
427.3188	46.02955
427.4841	48.06907
427.6495	48.63595
427.8148	50.65715
427.9801	56.59314
428.1454	55.43428
428.3107	51.72548
428.476	49.12896
428.6414	50.25307
428.8066	52.01513
428.9719	48.66638
429.1372	48.76603
429.3025	47.6471
429.4678	48.01604
429.633	45.20437
429.7983	51.02517
429.9636	49.50048
430.1288	42.37973
430.294	37.78873
430.4593	41.11159
430.6245	46.01907
430.7897	42.71362
430.955	47.56093
431.1202	45.13984
431.2854	50.1732
431.4506	56.74342
431.6158	57.01984
431.781	58.35732
431.9462	57.46331
432.1114	54.89408
432.2766	53.24003
432.4417	48.15131
432.6069	49.05287
432.772	52.15596
432.9372	54.58332
433.1024	52.69932
433.2675	62.61653
433.4326	56.1413
433.5977	59.52337
433.7629	54.14463
433.928	47.08958
434.0931	43.1432
434.2582	46.7007
434.4233	52.04742
434.5884	57.52537
434.7535	57.24752
434.9186	60.53601
435.0837	58.92145
435.2488	59.1185
435.4138	57.3414
435.5789	60.08733
435.744	63.02329
435.909	57.79618
436.0741	60.9303
436.2391	65.06207
436.4042	73.98857
436.5692	63.32515
436.7342	60.80864
436.8992	67.34071
437.0643	60.08718
437.2293	61.37254
437.3943	60.09448
437.5593	62.21951
437.7243	64.78888
437.8893	67.01879
438.0542	59.9558
438.2192	58.1251
438.3842	55.13655
438.5491	58.12428
438.7141	56.13911
438.8791	61.78424
439.044	63.83562
439.209	66.28589
439.3739	64.51006
439.5388	65.31343
439.7037	66.70171
439.8687	63.57737
440.0336	66.81983
440.1985	64.16806
440.3634	62.33296
440.5283	66.03503
440.6932	60.71577
440.8581	62.54372
441.0229	63.97827
441.1878	69.26856
441.3527	69.55431
441.5175	68.71309
441.6824	67.05518
441.8472	69.61014
442.0121	71.54372
442.1769	73.09954
442.3418	74.18056
442.5066	74.89445
442.6714	71.44035
442.8362	71.33727
443.001	72.23796
443.1659	70.09133
443.3307	68.53743
443.4955	69.46198
443.6602	74.45566
443.825	77.68082
443.9898	72.1871
444.1546	74.10754
444.3193	71.42386
444.4841	73.36662
444.6488	70.75611
444.8136	73.84522
444.9783	73.50674
445.1431	74.45863
445.3078	69.04411
445.4725	66.8666
445.6372	69.40714
445.802	67.00159
445.9667	68.05526
446.1314	68.65581
446.2961	63.36081
446.4608	66.70723
446.6255	72.22572
446.7901	70.60623
446.9548	71.63581
447.1195	72.84842
447.2841	74.12461
447.4488	72.8958
447.6134	76.12872
447.7781	80.9019
447.9427	78.62339
448.1074	75.96709
448.272	77.05174
448.4366	73.88378
448.6012	78.67464
448.7658	80.5507
448.9305	77.22941
449.095	77.2984
449.2596	76.3871
449.4242	79.65037
449.5888	77.91199
449.7534	80.10619
449.9179	78.53054
450.0825	74.77324
450.2471	77.95163
450.4116	84.61246
450.5762	87.71477
450.7407	88.79866
450.9052	91.55247
451.0698	87.26456
451.2343	82.60938
451.3988	86.84894
451.5633	87.6722
451.7278	83.82205
451.8923	87.10019
452.0568	87.40734
452.2213	86.5337
452.3858	84.46454
452.5503	83.02216
452.7148	83.62602
452.8792	76.8875
453.0437	84.50994
453.2081	80.27843
453.3726	80.53445
453.537	79.67631
453.7015	79.31072
453.8659	80.29331
454.0303	82.84704
454.1947	82.21307
454.3592	86.1243
454.5236	91.73874
454.688	90.0084
454.8524	82.80621
455.0168	82.91792
455.1811	81.91998
455.3455	83.89422
455.5099	81.96657
455.6743	83.95799
455.8386	89.47047
456.003	88.5358
456.1673	94.66561
456.3317	92.34952
456.496	92.95811
456.6603	90.10248
456.8246	97.17614
456.989	94.84193
457.1533	92.24092
457.3176	91.03094
457.4819	90.5628
457.6462	89.76355
457.8105	98.48051
457.9748	87.30656
458.1391	84.01072
458.3033	88.35424
458.4676	88.17017
458.6319	88.50542
458.7961	88.99587
458.9604	87.36452
459.1246	89.21547
459.2888	86.61639
459.4531	92.6633
459.6173	98.61183
459.7815	84.89883
459.9457	79.37246
460.11	90.95154
460.2741	93.53645
460.4384	85.70851
460.6025	93.06567
460.7667	93.08624
460.9309	87.44151
461.0951	88.06601
461.2592	88.90368
461.4234	92.72993
461.5876	91.42168
461.7517	90.3436
461.9159	97.1754
462.08	97.14188
462.2441	93.75626
462.4082	92.15668
462.5724	96.67864
462.7365	97.01536
462.9006	88.29803
463.0647	89.41523
463.2288	90.4139
463.3929	93.6752
463.557	89.41007
463.721	85.19701
463.8851	88.52775
464.0492	88.7299
464.2132	92.73124
464.3773	98.53503
464.5414	101.2921
464.7054	92.7029
464.8694	89.8648
465.0334	96.03864
465.1975	96.16916
465.3615	94.60218
465.5255	89.73199
465.6895	92.37405
465.8535	94.2705
466.0175	97.03707
466.1815	93.67419
466.3455	94.46187
466.5095	93.40894
466.6734	92.99242
466.8374	90.90395
467.0014	91.79898
467.1653	92.04919
467.3293	91.63486
467.4932	96.53459
467.6571	96.74082
467.8211	97.98192
467.985	93.77234
468.1489	90.92458
468.3128	94.29455
468.4767	94.97461
468.6406	97.67594
468.8045	97.85008
468.9684	97.49699
469.1323	102.5417
469.2962	96.60531
469.46	95.22419
469.6239	101.7675
469.7878	102.4728
469.9516	94.85561
470.1154	97.39478
470.2793	92.72211
470.4431	90.91832
470.607	90.40534
470.7708	97.45979
470.9346	97.88398
471.0984	103.5983
471.2622	102.3933
471.426	99.60748
471.5898	101.8741
471.7536	96.04755
471.9174	100.7758
472.0811	99.14507
472.2449	105.6122
472.4087	112.4326
472.5724	95.09816
472.7362	96.70251
472.8999	105.3755
473.0637	101.9934
473.2274	97.94619
473.3911	101.1255
473.5548	105.147
473.7185	97.4351
473.8822	100.1019
474.0459	102.4424
474.2096	102.7225
474.3733	97.98626
474.537	105.8079
474.7007	110.097
474.8643	111.2947
475.028	104.5217
475.1917	101.8502
475.3553	102.217
475.519	101.2792
475.6826	97.82813
475.8463	105.4475
476.0099	104.1421
476.1735	99.44878
476.3371	99.82686
476.5007	103.163
476.6643	101.9781
476.8279	103.8039
476.9915	102.8079
477.1551	106.3669
477.3187	98.80679
477.4823	99.56906
477.6458	104.6309
477.8094	101.1707
477.9729	104.2346
478.1365	110.3219
478.3	104.2071
478.4636	105.8717
478.6271	103.0715
478.7906	101.1017
478.9541	100.3504
479.1176	101.3162
479.2812	101.8099
479.4447	107.7876
479.6082	99.00762
479.7716	110.9918
479.9351	102.9334
480.0986	101.9781
480.2621	104.8905
480.4255	102.1399
480.589	109.4632
480.7524	107.6102
480.9159	106.4216
481.0793	108.0019
481.2428	100.3999
481.4062	97.27183
481.5696	108.9927
481.733	107.0158
481.8964	105.6958
482.0598	101.94
482.2232	102.709
482.3866	103.6742
482.55	102.5555
482.7134	107.648
482.8768	107.8647
483.0401	105.2323
483.2035	103.9095
483.3668	107.4382
483.5302	106.6474
483.6935	102.2458
483.8568	98.75731
484.0202	105.7741
484.1835	99.12378
484.3468	101.1406
484.5101	101.4814
484.6734	103.6443
484.8367	103.7309
485	111.6895
485.1633	112.8357
485.3266	103.0275
485.4899	98.40421
485.6531	98.43848
485.8164	92.92083
485.9796	91.15057
486.1429	89.86919
486.3061	82.47863
486.4694	90.1049
486.6326	93.34447
486.7958	98.63065
486.959	98.98453
487.1223	92.14717
487.2855	97.27538
487.4486	100.7512
487.6118	106.5338
487.775	105.576
487.9382	107.7817
488.1014	110.604
488.2646	106.7539
488.4277	104.6662
488.5909	105.7367
488.754	103.7925
488.9171	102.6962
489.0803	97.85815
489.2434	101.5899
489.4066	109.9499
489.5697	109.4301
489.7328	105.1922
489.8959	111.5814
490.059	110.4892
490.2221	110.3441
490.3852	111.066
490.5482	112.9261
490.7113	117.3505
490.8744	111.6752
491.0374	111.962
491.2005	110.4681
491.3636	110.2576
491.5266	110.6772
491.6896	107.2997
491.8527	105.3718
492.0157	98.24755
492.1787	99.53011
492.3417	105.4655
492.5047	113.1249
492.6677	117.9601
492.8307	112.1395
492.9937	108.7258
493.1567	107.7742
493.3196	107.5928
493.4826	110.8431
493.6456	106.4455
493.8085	109.408
493.9715	108.2262
494.1344	111.2293
494.2974	110.3583
494.4603	120.6189
494.6232	119.6245
494.7861	114.2451
494.949	111.1939
495.1119	115.7682
495.2748	117.3286
495.4377	116.9655
495.6006	114.6073
495.7635	110.7734
495.9264	110.0226
496.0892	114.335
496.2521	118.5232
496.4149	119.3617
496.5778	118.0812
496.7407	110.997
496.9035	116.6153
497.0663	120.0867
497.2291	114.0504
497.3919	115.8463
497.5547	119.5994
497.7176	117.8056
497.8804	117.5951
498.0432	114.1279
498.2059	116.246
498.3687	114.1349
498.5315	118.7579
498.6942	123.5636
498.857	122.1646
499.0198	118.5127
499.1825	124.5193
499.3452	120.81
499.508	122.0607
499.6707	114.6934
499.8334	114.7945
499.9962	114.8238
500.1589	116.7545
500.3216	117.5193
500.4843	123.9558
500.6469	122.6711
500.8096	125.7397
500.9723	123.6668
501.135	121.0101
501.2976	122.528
501.4603	109.0808
501.623	108.3375
501.7856	112.9651
501.9482	118.0204
502.1109	120.0031
502.2735	124.2396
502.4361	126.1625
502.5987	123.559
502.7614	121.6351
502.924	122.7736
503.0865	120.254
503.2491	126.0072
503.4117	130.7715
503.5743	127.9031
503.7368	121.5023
503.8994	121.1117
504.062	114.5674
504.2245	112.6851
504.3871	120.3732
504.5496	128.034
504.7121	123.6052
504.8746	125.1096
505.0372	128.4769
505.1997	122.1131
505.3622	126.7989
505.5247	133.9429
505.6872	133.4164
505.8497	137.5531
506.0121	138.2093
506.1746	139.5635
506.3371	137.2666
506.4995	129.55
506.662	137.6271
506.8244	132.3654
506.9869	137.5761
507.1493	138.7667
507.3117	137.179
507.4742	136.6039
507.6366	139.0928
507.799	141.418
507.9614	137.4308
508.1238	139.5621
508.2862	135.8177
508.4485	133.7205
508.6109	137.385
508.7733	137.5384
508.9357	139.092
509.098	150.9021
509.2604	148.3046
509.4227	145.1265
509.5851	137.0728
509.7474	136.8386
509.9097	142.8269
510.072	144.061
510.2343	136.7381
510.3966	144.1499
510.5589	140.061
510.7212	136.2656
510.8835	140.7904
511.0458	144.2895
511.2081	147.7687
511.3703	154.2744
511.5326	152.1018
511.6949	158.3141
511.8571	156.0545
512.0193	153.1653
512.1816	153.5314
512.3438	147.4913
512.506	141.841
512.6682	145.2417
512.8304	151.5471
512.9926	152.9503
513.1548	153.3308
513.317	159.1212
513.4792	153.8289
513.6414	148.1286
513.8035	142.7405
513.9657	139.8591
514.1279	145.9661
514.29	150.4547
514.4521	156.0754
514.6143	152.8038
514.7764	151.2877
514.9385	152.9654
515.1006	155.7652
515.2628	156.8646
515.4249	156.3872
515.587	154.1526
515.7491	157.5182
515.9111	159.759
516.0732	165.6506
516.2353	167.7894
516.3973	159.3066
516.5594	151.7041
