SPECTRUM DATA FILE
SpectrumCount:	1
PixelCount:	3648
UserName:	ToughBook User
SampleName:	
LightSource:	
Comments:	
DeviceName:	Qwave
DeviceManufacturer:	Broadcom
DeviceSerialNo:	11311

Name:	last spectrum
Date:	2024-05-02T14:53:05.4755979+02:00
ExposureTime:	0.02
TemporalAvg:	1
IntensityUnit:	normalizedCounts
CCDLoadLevel:	0.05364329
Temperature:	33.14276
DiagramColor:	200
ProcessingSteps:	335

Wavelength [nm]	Intensity1
334.421	12.83839
334.5891	12.3466
334.7573	9.697419
334.9254	9.714135
335.0935	12.37237
335.2616	10.81169
335.4297	11.70562
335.5978	10.4903
335.7659	9.114323
335.934	11.39773
336.1021	9.517291
336.2701	11.51484
336.4382	12.7629
336.6063	9.300154
336.7744	8.841221
336.9424	11.97764
337.1105	10.70127
337.2785	12.54643
337.4466	7.279723
337.6146	9.538
337.7827	13.43889
337.9507	12.19819
338.1187	8.966987
338.2867	9.005173
338.4548	10.72582
338.6228	10.4159
338.7908	9.420772
338.9588	11.42848
339.1268	9.576364
339.2948	12.67815
339.4628	8.256372
339.6308	9.401174
339.7988	10.77382
339.9667	13.32625
340.1347	13.31919
340.3027	11.43166
340.4707	9.427277
340.6386	6.379569
340.8066	5.73016
340.9745	12.70442
341.1425	8.467834
341.3104	13.41631
341.4784	11.85662
341.6463	5.887486
341.8142	7.117446
341.9821	11.41153
342.1501	7.764211
342.318	12.52359
342.4859	11.94437
342.6538	10.90209
342.8217	15.2256
342.9896	13.61406
343.1575	13.5288
343.3254	12.88927
343.4933	11.25737
343.6612	9.564222
343.829	9.237368
343.9969	10.41078
344.1648	12.57076
344.3326	15.20197
344.5005	5.546112
344.6683	7.531435
344.8362	12.63483
345.004	17.40945
345.1719	11.28773
345.3397	12.99933
345.5075	18.32691
345.6754	15.42938
345.8432	9.370222
346.011	9.598145
346.1788	9.505627
346.3466	15.27654
346.5144	10.39452
346.6822	10.98757
346.85	11.56672
347.0178	12.42849
347.1856	10.72331
347.3534	7.586868
347.5211	8.989385
347.6889	6.562596
347.8567	15.80111
348.0244	12.04261
348.1922	15.22121
348.3599	16.46892
348.5277	15.46939
348.6954	12.77502
348.8632	7.829144
349.0309	10.26071
349.1986	9.714226
349.3663	12.99639
349.5341	11.83203
349.7018	11.59504
349.8695	13.25754
350.0372	9.901785
350.2049	10.56413
350.3726	15.66491
350.5403	12.69813
350.7079	11.57767
350.8756	10.01612
351.0433	8.250033
351.211	7.695082
351.3786	8.693037
351.5463	10.38026
351.714	9.548816
351.8816	12.21764
352.0493	12.719
352.2169	13.11975
352.3846	12.34702
352.5522	14.70783
352.7198	16.93797
352.8875	21.94751
353.0551	20.01151
353.2227	12.28907
353.3903	10.8779
353.5579	12.8594
353.7255	13.90598
353.8931	10.90021
354.0607	14.7272
354.2283	18.71109
354.3958	15.15792
354.5634	12.58232
354.731	17.51396
354.8986	10.89629
355.0661	10.10359
355.2337	16.11082
355.4012	14.07981
355.5688	12.25111
355.7363	16.29657
355.9039	14.09025
356.0714	15.97099
356.239	15.72412
356.4065	14.47991
356.574	10.57265
356.7415	10.37652
356.909	12.0479
357.0765	14.16023
357.244	12.3739
357.4115	12.04125
357.579	12.48635
357.7465	13.96975
357.914	13.72075
358.0815	12.44336
358.249	11.98085
358.4164	12.81994
358.5839	11.61174
358.7513	10.36938
358.9188	10.06729
359.0862	8.977372
359.2537	13.63618
359.4211	14.45711
359.5886	9.153562
359.756	16.31624
359.9234	13.21201
360.0909	12.34301
360.2583	17.24092
360.4257	12.34001
360.5931	14.18247
360.7605	17.90001
360.9279	16.11864
361.0953	20.74868
361.2627	12.64307
361.4301	9.947106
361.5974	11.80866
361.7648	11.6728
361.9322	14.45887
362.0995	12.22317
362.2669	11.58104
362.4343	10.01229
362.6016	18.55868
362.769	17.45848
362.9363	16.623
363.1036	14.86665
363.271	11.73851
363.4383	12.35966
363.6056	13.45367
363.7729	17.3031
363.9402	13.54045
364.1075	15.68769
364.2748	16.61164
364.4421	14.77344
364.6094	14.47546
364.7767	14.89351
364.944	14.37822
365.1113	17.00278
365.2786	14.95311
365.4458	14.55293
365.6131	14.76018
365.7803	17.32733
365.9476	18.40827
366.1148	16.40158
366.2821	11.73155
366.4493	12.76159
366.6166	15.39797
366.7838	10.92756
366.951	12.56027
367.1182	16.43393
367.2855	17.08119
367.4527	15.30832
367.6199	11.98723
367.7871	10.9145
367.9543	13.86536
368.1215	18.8689
368.2886	14.3271
368.4558	11.9385
368.623	13.68581
368.7902	14.281
368.9573	17.85284
369.1245	15.23116
369.2917	11.27827
369.4588	14.2985
369.6259	14.86504
369.7931	15.62444
369.9602	10.78005
370.1274	15.12931
370.2945	14.28883
370.4616	13.56775
370.6287	15.75626
370.7958	15.32836
370.963	15.67013
371.1301	12.65824
371.2971	15.51242
371.4643	14.97327
371.6313	18.60102
371.7984	22.13349
371.9655	16.67465
372.1326	16.47642
372.2997	20.1517
372.4667	16.8413
372.6338	12.9195
372.8008	11.12894
372.9679	14.25863
373.1349	15.02998
373.3019	16.2968
373.469	18.21311
373.636	15.45267
373.803	18.92726
373.9701	18.48993
374.1371	18.29226
374.3041	16.23217
374.4711	13.32359
374.6381	19.86707
374.8051	18.88655
374.9721	15.566
375.1391	13.98858
375.3061	18.8571
375.473	19.6779
375.64	18.88304
375.8069	14.77129
375.9739	14.74826
376.1409	17.47948
376.3078	20.3091
376.4748	19.82681
376.6417	14.20555
376.8087	15.4649
376.9756	18.68695
377.1425	14.68924
377.3094	15.92107
377.4763	14.39651
377.6432	15.0137
377.8102	19.63822
377.9771	18.01571
378.144	20.73252
378.3109	16.9558
378.4777	20.16731
378.6446	19.41264
378.8115	18.018
378.9784	16.36879
379.1452	18.11713
379.3121	13.77012
379.4789	13.28119
379.6458	16.96136
379.8127	15.79924
379.9795	15.8488
380.1463	21.57123
380.3131	19.26599
380.48	17.50757
380.6468	15.88305
380.8136	15.81992
380.9804	14.82145
381.1472	17.83968
381.314	19.55077
381.4808	18.09085
381.6476	16.09571
381.8144	16.75072
381.9812	18.17662
382.148	19.19818
382.3147	14.20449
382.4815	15.84106
382.6483	18.67836
382.815	15.60968
382.9818	15.70454
383.1485	17.3125
383.3153	17.00237
383.482	17.86558
383.6487	22.64917
383.8155	20.60637
383.9822	20.40822
384.1489	18.34669
384.3156	22.5317
384.4823	18.64848
384.649	16.36175
384.8157	19.27968
384.9824	18.24459
385.1491	20.81043
385.3158	20.46028
385.4825	19.50102
385.6491	15.943
385.8158	14.02097
385.9825	15.22152
386.1491	17.75465
386.3157	22.30262
386.4824	17.62525
386.649	20.17478
386.8157	21.04658
386.9823	19.87892
387.1489	16.49754
387.3156	21.40725
387.4821	23.55467
387.6488	17.4744
387.8154	22.66757
387.982	18.85936
388.1486	19.88013
388.3152	19.68001
388.4818	25.13579
388.6483	21.19104
388.8149	21.71512
388.9815	21.74217
389.148	22.86794
389.3146	23.38578
389.4811	23.94676
389.6477	25.76449
389.8142	23.73737
389.9808	23.34797
390.1473	21.85904
390.3138	19.38039
390.4804	19.4518
390.6469	20.75245
390.8134	20.91486
390.9799	22.02796
391.1464	23.80252
391.3129	22.08664
391.4794	25.16068
391.6459	20.67139
391.8124	18.60375
391.9789	20.39356
392.1453	22.72762
392.3118	20.32714
392.4782	20.49705
392.6447	17.04718
392.8112	15.70233
392.9776	18.44033
393.144	16.26146
393.3105	20.09516
393.4769	16.48849
393.6433	21.57306
393.8098	20.43958
393.9762	16.60783
394.1426	21.79828
394.309	20.13903
394.4754	17.55879
394.6418	19.16224
394.8082	23.06963
394.9746	23.95106
395.141	27.70506
395.3073	29.18059
395.4737	27.83214
395.64	25.10348
395.8064	24.07882
395.9728	21.92723
396.1391	24.69971
396.3055	22.12538
396.4718	23.46719
396.6381	19.73627
396.8045	18.13723
396.9708	18.8163
397.1371	22.65608
397.3034	32.45158
397.4697	25.4081
397.636	25.50372
397.8023	27.3796
397.9686	31.15543
398.1349	25.7242
398.3012	29.56499
398.4675	27.88838
398.6337	28.80918
398.8	28.05252
398.9662	32.19452
399.1325	29.9066
399.2988	32.06523
399.465	31.40953
399.6313	29.09198
399.7975	30.57048
399.9637	22.16517
400.1299	30.69689
400.2961	32.67123
400.4624	30.12191
400.6286	32.71152
400.7948	29.58421
400.961	30.21059
401.1272	30.3302
401.2934	26.85695
401.4595	30.62454
401.6257	27.77993
401.7919	30.10024
401.9581	30.0958
402.1242	32.00407
402.2904	32.24172
402.4565	32.23887
402.6227	31.31759
402.7888	30.14061
402.955	28.84517
403.1211	25.25303
403.2872	35.02422
403.4533	29.84451
403.6194	31.54341
403.7856	28.45663
403.9517	27.89519
404.1177	30.00537
404.2838	32.20441
404.4499	31.3831
404.616	31.27752
404.7821	29.79309
404.9482	29.4698
405.1142	35.5625
405.2803	33.28514
405.4464	26.08737
405.6124	26.89903
405.7784	28.91036
405.9445	34.4232
406.1105	28.52605
406.2766	29.74501
406.4426	31.41454
406.6086	30.84854
406.7746	35.20216
406.9406	37.61594
407.1066	30.94169
407.2726	22.51222
407.4386	30.67831
407.6046	36.03793
407.7706	33.36143
407.9366	29.81495
408.1025	37.28
408.2685	40.52421
408.4344	33.43307
408.6004	37.05146
408.7664	39.25819
408.9323	38.15597
409.0983	41.10524
409.2642	41.77252
409.4301	36.57487
409.596	36.49606
409.762	38.24873
409.9279	36.38962
410.0938	31.94275
410.2597	35.10549
410.4256	35.55661
410.5915	36.90694
410.7574	40.79048
410.9232	38.9688
411.0891	39.42595
411.255	41.72526
411.4209	40.70722
411.5867	44.24979
411.7526	45.91322
411.9184	47.23361
412.0843	41.8782
412.2501	44.05767
412.4159	44.67378
412.5818	43.73372
412.7476	39.93882
412.9134	40.00619
413.0792	37.78793
413.245	39.57631
413.4108	45.86612
413.5766	41.45488
413.7424	34.98262
413.9082	46.01875
414.074	42.69109
414.2397	41.22328
414.4055	40.09548
414.5713	43.51979
414.737	43.03764
414.9028	42.15982
415.0685	39.03801
415.2343	40.66975
415.4	38.48781
415.5658	42.67079
415.7315	41.87532
415.8972	43.04511
416.0629	44.97554
416.2286	43.44417
416.3943	44.33747
416.56	41.79448
416.7257	48.06137
416.8914	47.4101
417.0571	43.55939
417.2228	39.97192
417.3884	43.01114
417.5541	44.96261
417.7198	41.08796
417.8854	38.66285
418.0511	43.09317
418.2167	40.81599
418.3824	40.54479
418.548	40.98457
418.7136	41.09702
418.8792	44.60923
419.0449	45.68958
419.2105	43.39161
419.3761	46.09165
419.5417	44.40971
419.7073	42.98199
419.8729	39.4817
420.0385	43.43387
420.204	42.3815
420.3696	45.49057
420.5352	46.48586
420.7007	52.24201
420.8663	48.23176
421.0319	49.72097
421.1974	47.34081
421.3629	51.36295
421.5285	51.65221
421.694	50.10427
421.8595	50.53685
422.0251	47.93803
422.1906	49.13175
422.3561	43.9506
422.5216	43.85556
422.6871	44.29392
422.8526	47.26099
423.0181	48.85189
423.1835	48.12568
423.349	47.81391
423.5145	44.64427
423.68	44.34741
423.8454	48.26817
424.0109	51.36001
424.1763	52.2955
424.3418	48.162
424.5072	54.28088
424.6726	54.18975
424.838	49.4683
425.0035	50.66629
425.1689	53.02628
425.3343	49.62809
425.4997	50.43205
425.6651	56.69522
425.8305	55.80501
425.9959	51.41139
426.1613	53.51368
426.3267	52.42989
426.492	50.6122
426.6574	56.94495
426.8228	54.71915
426.9881	54.06779
427.1534	51.6676
427.3188	51.32508
427.4841	52.01532
427.6495	55.74255
427.8148	56.82539
427.9801	56.12529
428.1454	55.49184
428.3107	52.90862
428.476	53.84674
428.6414	49.09663
428.8066	49.76559
428.9719	53.74182
429.1372	53.90575
429.3025	46.48026
429.4678	49.93581
429.633	48.41631
429.7983	48.90312
429.9636	44.05695
430.1288	47.02224
430.294	52.34199
430.4593	45.04565
430.6245	39.01957
430.7897	44.20562
430.955	44.07136
431.1202	45.57399
431.2854	48.69487
431.4506	51.93176
431.6158	56.2928
431.781	62.1782
431.9462	56.95597
432.1114	56.07042
432.2766	53.36694
432.4417	49.31295
432.6069	44.69906
432.772	53.66459
432.9372	57.76206
433.1024	56.26206
433.2675	63.40814
433.4326	58.50781
433.5977	58.44879
433.7629	52.79171
433.928	53.2959
434.0931	50.18378
434.2582	49.64721
434.4233	53.86329
434.5884	59.15269
434.7535	59.06878
434.9186	61.25425
435.0837	64.85703
435.2488	54.39538
435.4138	54.12428
435.5789	55.31454
435.744	60.73244
435.909	57.6579
436.0741	61.76995
436.2391	69.31802
436.4042	69.12719
436.5692	67.01185
436.7342	66.58572
436.8992	63.32904
437.0643	62.34715
437.2293	65.60555
437.3943	64.5582
437.5593	58.92844
437.7243	67.88397
437.8893	66.2515
438.0542	70.09119
438.2192	61.56466
438.3842	56.42418
438.5491	55.51544
438.7141	60.41154
438.8791	62.13034
439.044	59.33211
439.209	59.19033
439.3739	69.42829
439.5388	72.83319
439.7037	68.50689
439.8687	64.76903
440.0336	63.0097
440.1985	63.58232
440.3634	62.27214
440.5283	67.1293
440.6932	68.86662
440.8581	67.8132
441.0229	64.66128
441.1878	73.07598
441.3527	70.34343
441.5175	66.69846
441.6824	66.68524
441.8472	72.45385
442.0121	74.79903
442.1769	72.32737
442.3418	71.14496
442.5066	69.19255
442.6714	70.25905
442.8362	64.53323
443.001	71.25774
443.1659	72.57543
443.3307	65.31558
443.4955	71.23073
443.6602	70.76111
443.825	75.51495
443.9898	74.43451
444.1546	71.45522
444.3193	70.67168
444.4841	73.80777
444.6488	71.29853
444.8136	73.68658
444.9783	66.75544
445.1431	71.45566
445.3078	67.3149
445.4725	70.41335
445.6372	72.37173
445.802	66.67548
445.9667	68.58237
446.1314	68.79816
446.2961	67.57834
446.4608	69.96811
446.6255	73.97383
446.7901	75.07674
446.9548	75.79688
447.1195	74.18272
447.2841	77.1593
447.4488	78.92345
447.6134	77.8577
447.7781	80.02888
447.9427	78.02299
448.1074	81.11588
448.272	75.44382
448.4366	75.5951
448.6012	77.06316
448.7658	75.83707
448.9305	76.55341
449.095	77.05662
449.2596	77.33051
449.4242	75.6437
449.5888	72.53693
449.7534	72.44205
449.9179	73.9751
450.0825	80.73746
450.2471	83.65085
450.4116	83.18978
450.5762	87.77307
450.7407	86.50108
450.9052	85.70493
451.0698	89.00485
451.2343	85.36784
451.3988	83.58645
451.5633	84.87234
451.7278	83.4017
451.8923	84.09422
452.0568	84.78727
452.2213	84.9535
452.3858	85.76815
452.5503	85.68497
452.7148	77.94781
452.8792	77.30663
453.0437	82.77527
453.2081	81.59909
453.3726	77.33635
453.537	81.22653
453.7015	87.11963
453.8659	80.25077
454.0303	82.5036
454.1947	86.39471
454.3592	80.21061
454.5236	85.09657
454.688	93.33743
454.8524	82.44419
455.0168	85.11377
455.1811	87.11658
455.3455	81.04229
455.5099	83.24342
455.6743	82.55182
455.8386	86.21391
456.003	91.91871
456.1673	88.87729
456.3317	87.91161
456.496	84.10962
456.6603	93.19062
456.8246	93.13844
456.989	89.22342
457.1533	94.59987
457.3176	89.5304
457.4819	86.1192
457.6462	94.10937
457.8105	90.43704
457.9748	88.62285
458.1391	88.76571
458.3033	84.92672
458.4676	86.3501
458.6319	87.72553
458.7961	86.33112
458.9604	86.37772
459.1246	89.57836
459.2888	88.85365
459.4531	86.89714
459.6173	87.79024
459.7815	84.63206
459.9457	87.7939
460.11	90.07689
460.2741	84.1361
460.4384	83.2942
460.6025	90.463
460.7667	92.22803
460.9309	92.36768
461.0951	89.92774
461.2592	92.2656
461.4234	89.25274
461.5876	89.177
461.7517	91.39324
461.9159	90.24659
462.08	87.37991
462.2441	93.51835
462.4082	95.75423
462.5724	93.49844
462.7365	91.99249
462.9006	91.17412
463.0647	93.64476
463.2288	94.33653
463.3929	94.78904
463.557	95.11465
463.721	86.58659
463.8851	93.27358
464.0492	90.88287
464.2132	94.41265
464.3773	94.0392
464.5414	89.80851
464.7054	82.27817
464.8694	85.47302
465.0334	94.28211
465.1975	85.21932
465.3615	87.25761
465.5255	93.60698
465.6895	93.62654
465.8535	90.85078
466.0175	94.62968
466.1815	100.133
466.3455	92.35373
466.5095	90.93961
466.6734	88.95797
466.8374	88.16525
467.0014	90.73882
467.1653	90.99416
467.3293	94.10719
467.4932	98.81332
467.6571	97.07159
467.8211	94.85667
467.985	91.39003
468.1489	92.47675
468.3128	90.6823
468.4767	93.23862
468.6406	95.7402
468.8045	95.90044
468.9684	93.18871
469.1323	97.27927
469.2962	95.13878
469.46	95.7632
469.6239	92.23868
469.7878	94.62331
469.9516	94.89785
470.1154	95.03216
470.2793	91.80228
470.4431	93.50096
470.607	91.51527
470.7708	95.64114
470.9346	99.19546
471.0984	95.88581
471.2622	97.21304
471.426	96.87682
471.5898	103.5945
471.7536	96.60111
471.9174	99.43668
472.0811	101.0018
472.2449	95.05376
472.4087	102.8819
472.5724	98.56689
472.7362	96.43901
472.8999	97.76698
473.0637	93.08327
473.2274	92.55264
473.3911	105.0053
473.5548	100.6314
473.7185	99.21181
473.8822	102.9851
474.0459	103.7057
474.2096	104.6964
474.3733	101.1916
474.537	99.04025
474.7007	103.3361
474.8643	101.0453
475.028	98.64864
475.1917	98.1308
475.3553	99.11739
475.519	100.6375
475.6826	100.5626
475.8463	104.3814
476.0099	100.5085
476.1735	95.17971
476.3371	94.87968
476.5007	94.64039
476.6643	93.48011
476.8279	99.57822
476.9915	106.228
477.1551	105.8198
477.3187	101.6966
477.4823	101.2482
477.6458	102.7712
477.8094	102.2463
477.9729	99.43819
478.1365	101.8092
478.3	102.1526
478.4636	102.784
478.6271	102.6105
478.7906	103.1723
478.9541	99.52168
479.1176	102.8766
479.2812	100.8678
479.4447	108.2488
479.6082	102.9416
479.7716	102.3488
479.9351	102.8957
480.0986	101.8399
480.2621	103.8448
480.4255	102.4627
480.589	100.8009
480.7524	100.0475
480.9159	97.61754
481.0793	103.4019
481.2428	99.95913
481.4062	103.4623
481.5696	104.2361
481.733	102.6443
481.8964	106.9912
482.0598	103.1464
482.2232	100.1973
482.3866	101.9287
482.55	99.96089
482.7134	102.6434
482.8768	106.1086
483.0401	102.4251
483.2035	97.60989
483.3668	100.2795
483.5302	102.9128
483.6935	105.3255
483.8568	100.9977
484.0202	99.58929
484.1835	95.37492
484.3468	103.3562
484.5101	101.3417
484.6734	97.52749
484.8367	100.9408
485	103.7775
485.1633	102.2496
485.3266	103.2697
485.4899	96.08364
485.6531	95.82996
485.8164	93.37151
485.9796	82.46848
486.1429	78.68187
486.3061	82.34036
486.4694	90.72718
486.6326	94.42806
486.7958	93.84241
486.959	101.1633
487.1223	98.39324
487.2855	100.5317
487.4486	102.4545
487.6118	93.42502
487.775	101.7291
487.9382	104.6996
488.1014	102.9838
488.2646	107.2994
488.4277	103.7281
488.5909	98.74761
488.754	101.5675
488.9171	104.2397
489.0803	99.82512
489.2434	97.34277
489.4066	102.9952
489.5697	111.4038
489.7328	112.6108
489.8959	111.5494
490.059	112.1865
490.2221	105.1102
490.3852	106.3383
490.5482	105.8565
490.7113	107.825
490.8744	107.4355
491.0374	105.0682
491.2005	111.0375
491.3636	108.3651
491.5266	109.1813
491.6896	107.3453
491.8527	99.6459
492.0157	89.86432
492.1787	95.87276
492.3417	100.1675
492.5047	102.7693
492.6677	114.6306
492.8307	114.1496
492.9937	110.4283
493.1567	111.0147
493.3196	113.199
493.4826	106.4935
493.6456	105.5822
493.8085	109.1438
493.9715	105.7115
494.1344	110.4551
494.2974	115.8358
494.4603	116.0623
494.6232	112.927
494.7861	114.6122
494.949	107.6743
495.1119	111.957
495.2748	112.7969
495.4377	114.1678
495.6006	116.0755
495.7635	114.6794
495.9264	107.6589
496.0892	112.6706
496.2521	117.3694
496.4149	115.5909
496.5778	118.4433
496.7407	115.6846
496.9035	114.7681
497.0663	117.4373
497.2291	120.4893
497.3919	119.3679
497.5547	119.7527
497.7176	117.4555
497.8804	118.5277
498.0432	114.4719
498.2059	106.7166
498.3687	108.8829
498.5315	108.8029
498.6942	111.8463
498.857	116.434
499.0198	110.4502
499.1825	112.0137
499.3452	112.9118
499.508	110.9919
499.6707	123.2311
499.8334	121.3928
499.9962	118.6223
500.1589	112.3837
500.3216	113.939
500.4843	112.5197
500.6469	114.3162
500.8096	115.2122
500.9723	112.9626
501.135	113.8236
501.2976	110.4805
501.4603	105.8119
501.623	112.08
501.7856	114.0606
501.9482	113.0849
502.1109	119.1059
502.2735	117.1406
502.4361	117.4928
502.5987	114.6991
502.7614	112.296
502.924	120.7513
503.0865	119.9183
503.2491	120.0758
503.4117	119.9894
503.5743	112.272
503.7368	107.931
503.8994	117.0488
504.062	119.8439
504.2245	121.8067
504.3871	125.1111
504.5496	124.3451
504.7121	128.246
504.8746	130.3103
505.0372	124.0222
505.1997	125.1553
505.3622	131.3716
505.5247	130.0479
505.6872	134.3235
505.8497	137.1356
506.0121	132.9606
506.1746	132.601
506.3371	136.1759
506.4995	127.2987
506.662	125.7327
506.8244	131.458
506.9869	130.8184
507.1493	132.7607
507.3117	129.9035
507.4742	134.3348
507.6366	131.2034
507.799	131.1858
507.9614	133.0991
508.1238	125.655
508.2862	129.7169
508.4485	135.132
508.6109	135.3831
508.7733	141.2378
508.9357	141.6347
509.098	139.2002
509.2604	139.7203
509.4227	146.6723
509.5851	140.716
509.7474	135.0102
509.9097	135.389
510.072	128.1003
510.2343	138.9069
510.3966	143.9148
510.5589	145.0467
510.7212	139.4072
510.8835	138.2322
511.0458	145.9732
511.2081	148.9411
511.3703	145.265
511.5326	142.9816
511.6949	147.8046
511.8571	148.9818
512.0193	150.1494
512.1816	149.4164
512.3438	150.5156
512.506	143.3201
512.6682	142.5392
512.8304	142.2815
512.9926	150.3459
513.1548	145.987
513.317	148.6888
513.4792	144.2236
513.6414	144.1689
513.8035	143.52
513.9657	148.4486
514.1279	150.7657
514.29	144.2354
514.4521	147.191
514.6143	150.3934
514.7764	152.6948
514.9385	155.3016
515.1006	152.327
515.2628	149.3883
515.4249	149.0324
515.587	149.2821
515.7491	161.6659
515.9111	154.2693
516.0732	154.9396
516.2353	158.5192
516.3973	148.9216
