SPECTRUM DATA FILE
SpectrumCount:	1
PixelCount:	3648
UserName:	ToughBook User
SampleName:	
LightSource:	
Comments:	
DeviceName:	Qwave
DeviceManufacturer:	Broadcom
DeviceSerialNo:	11311

Name:	last spectrum
Date:	2024-05-02T14:52:26.0567887+02:00
ExposureTime:	0.02
TemporalAvg:	1
IntensityUnit:	normalizedCounts
CCDLoadLevel:	0.06494009
Temperature:	33.14276
DiagramColor:	200
ProcessingSteps:	335

Wavelength [nm]	Intensity1
334.421	13.54904
334.5891	12.69997
334.7573	11.48885
334.9254	10.01533
335.0935	16.43164
335.2616	12.64051
335.4297	8.137448
335.5978	9.763582
335.7659	8.128785
335.934	15.06224
336.1021	12.83516
336.2701	11.35012
336.4382	14.41113
336.6063	12.55388
336.7744	15.1336
336.9424	16.41859
337.1105	16.48718
337.2785	17.35658
337.4466	12.74068
337.6146	14.84205
337.7827	15.60836
337.9507	12.30605
338.1187	9.946976
338.2867	12.99535
338.4548	15.35548
338.6228	16.1442
338.7908	11.49879
338.9588	13.12046
339.1268	13.62599
339.2948	11.44739
339.4628	15.69928
339.6308	12.54164
339.7988	14.71247
339.9667	13.94456
340.1347	13.36452
340.3027	16.28195
340.4707	14.75006
340.6386	11.10828
340.8066	9.466974
340.9745	11.39767
341.1425	11.561
341.3104	10.60493
341.4784	11.99738
341.6463	14.89991
341.8142	14.76984
341.9821	9.377057
342.1501	12.29512
342.318	11.17084
342.4859	17.34695
342.6538	13.27268
342.8217	11.60439
342.9896	13.36063
343.1575	13.81355
343.3254	20.44589
343.4933	15.07114
343.6612	15.83158
343.829	9.233583
343.9969	12.24163
344.1648	11.49973
344.3326	11.79088
344.5005	10.84142
344.6683	8.40905
344.8362	13.2612
345.004	16.05185
345.1719	15.36032
345.3397	11.42255
345.5075	11.65843
345.6754	16.17255
345.8432	8.107633
346.011	9.147616
346.1788	15.18279
346.3466	15.09303
346.5144	11.3694
346.6822	11.23154
346.85	14.86258
347.0178	12.63905
347.1856	10.14012
347.3534	14.45857
347.5211	14.93768
347.6889	15.09
347.8567	11.90876
348.0244	9.132293
348.1922	9.895702
348.3599	14.66942
348.5277	13.38255
348.6954	11.93449
348.8632	8.513142
349.0309	10.8163
349.1986	17.16115
349.3663	10.28621
349.5341	11.9356
349.7018	13.41242
349.8695	13.72639
350.0372	13.35389
350.2049	13.44928
350.3726	10.85794
350.5403	11.32304
350.7079	13.20557
350.8756	12.87959
351.0433	15.51902
351.211	15.72523
351.3786	14.1759
351.5463	12.11239
351.714	10.78347
351.8816	12.19366
352.0493	12.10515
352.2169	13.92043
352.3846	9.711002
352.5522	11.4955
352.7198	12.91059
352.8875	13.45927
353.0551	14.44786
353.2227	18.09799
353.3903	12.3601
353.5579	15.00091
353.7255	12.2112
353.8931	11.19082
354.0607	12.28185
354.2283	12.35314
354.3958	14.58642
354.5634	14.37096
354.731	17.28295
354.8986	14.84235
355.0661	16.72444
355.2337	14.50718
355.4012	16.06338
355.5688	13.01296
355.7363	19.26245
355.9039	13.44394
356.0714	14.76739
356.239	8.404583
356.4065	12.52635
356.574	14.25124
356.7415	12.18445
356.909	12.01363
357.0765	11.46165
357.244	16.69116
357.4115	13.62554
357.579	15.63748
357.7465	15.98238
357.914	10.10351
358.0815	13.04789
358.249	11.17308
358.4164	12.27273
358.5839	11.05203
358.7513	9.468745
358.9188	15.5187
359.0862	16.68925
359.2537	14.61871
359.4211	13.69074
359.5886	15.28037
359.756	12.50392
359.9234	14.46562
360.0909	14.38884
360.2583	17.65011
360.4257	14.28271
360.5931	9.442277
360.7605	14.16209
360.9279	16.7221
361.0953	11.16187
361.2627	11.99059
361.4301	17.44163
361.5974	10.05489
361.7648	11.29825
361.9322	15.23844
362.0995	20.52716
362.2669	13.69921
362.4343	19.26233
362.6016	15.99449
362.769	11.68555
362.9363	14.97019
363.1036	16.5961
363.271	17.55113
363.4383	16.337
363.6056	19.52889
363.7729	15.72687
363.9402	22.39396
364.1075	20.80523
364.2748	18.50231
364.4421	21.6101
364.6094	15.03445
364.7767	17.51036
364.944	15.81052
365.1113	16.32675
365.2786	15.44139
365.4458	16.58067
365.6131	18.74858
365.7803	20.23921
365.9476	16.36978
366.1148	18.15976
366.2821	14.98105
366.4493	21.53995
366.6166	17.24179
366.7838	15.59096
366.951	23.66439
367.1182	22.11398
367.2855	20.41314
367.4527	15.95006
367.6199	17.51743
367.7871	15.52492
367.9543	16.82393
368.1215	13.90873
368.2886	16.55744
368.4558	18.32649
368.623	15.13661
368.7902	15.2918
368.9573	19.35964
369.1245	19.24285
369.2917	17.21318
369.4588	15.67723
369.6259	16.78989
369.7931	15.15633
369.9602	17.92266
370.1274	18.81064
370.2945	14.33793
370.4616	16.50335
370.6287	18.00808
370.7958	13.35646
370.963	14.76757
371.1301	16.15795
371.2971	20.8607
371.4643	21.04535
371.6313	14.88686
371.7984	17.52852
371.9655	18.81301
372.1326	17.43602
372.2997	20.67689
372.4667	22.51194
372.6338	14.32588
372.8008	17.10176
372.9679	21.95355
373.1349	23.322
373.3019	22.86509
373.469	19.46539
373.636	17.29051
373.803	19.80511
373.9701	16.95075
374.1371	18.48513
374.3041	19.40839
374.4711	14.66773
374.6381	19.63505
374.8051	19.55496
374.9721	21.51341
375.1391	18.32715
375.3061	22.41213
375.473	22.08768
375.64	25.58011
375.8069	20.60196
375.9739	18.82393
376.1409	18.55207
376.3078	20.83896
376.4748	18.73016
376.6417	17.76135
376.8087	14.62887
376.9756	16.75171
377.1425	17.27633
377.3094	22.69463
377.4763	21.26294
377.6432	24.89359
377.8102	20.80699
377.9771	21.04067
378.144	24.71554
378.3109	21.73498
378.4777	21.11215
378.6446	18.90307
378.8115	19.89443
378.9784	21.24641
379.1452	23.18754
379.3121	21.29668
379.4789	17.58935
379.6458	19.87357
379.8127	19.73925
379.9795	17.30044
380.1463	16.74799
380.3131	19.50026
380.48	20.65441
380.6468	20.10563
380.8136	18.14534
380.9804	16.89276
381.1472	16.21579
381.314	14.0405
381.4808	15.87813
381.6476	16.25357
381.8144	20.33419
381.9812	21.3603
382.148	20.48947
382.3147	19.84528
382.4815	16.37932
382.6483	16.04732
382.815	17.65459
382.9818	18.51082
383.1485	17.48773
383.3153	18.85388
383.482	16.4987
383.6487	20.98108
383.8155	19.82789
383.9822	19.22961
384.1489	19.83586
384.3156	22.54701
384.4823	21.02172
384.649	25.14048
384.8157	25.48649
384.9824	21.36352
385.1491	19.1554
385.3158	19.72574
385.4825	23.78275
385.6491	22.05724
385.8158	16.98346
385.9825	19.78559
386.1491	20.86897
386.3157	21.44689
386.4824	20.33932
386.649	27.95823
386.8157	26.63161
386.9823	23.72446
387.1489	20.82123
387.3156	26.82568
387.4821	22.18786
387.6488	23.40978
387.8154	22.77791
387.982	20.73052
388.1486	21.1057
388.3152	21.92826
388.4818	24.18179
388.6483	24.57399
388.8149	26.31058
388.9815	20.02168
389.148	20.54869
389.3146	21.53911
389.4811	24.23608
389.6477	24.40777
389.8142	27.67206
389.9808	26.83724
390.1473	25.07279
390.3138	22.9388
390.4804	20.76835
390.6469	26.43877
390.8134	25.9741
390.9799	21.77281
391.1464	22.73214
391.3129	24.35022
391.4794	19.87093
391.6459	24.51131
391.8124	24.22045
391.9789	20.13299
392.1453	24.00584
392.3118	20.97485
392.4782	21.57186
392.6447	24.99705
392.8112	18.79825
392.9776	22.42462
393.144	21.01186
393.3105	20.46957
393.4769	22.2632
393.6433	22.41599
393.8098	25.77123
393.9762	23.36088
394.1426	25.38546
394.309	20.12987
394.4754	23.97443
394.6418	26.85986
394.8082	30.32171
394.9746	25.48135
395.141	29.68938
395.3073	28.50208
395.4737	32.11339
395.64	28.9806
395.8064	22.02556
395.9728	30.11698
396.1391	24.49135
396.3055	25.49585
396.4718	27.19726
396.6381	21.77134
396.8045	23.71459
396.9708	23.21883
397.1371	26.26046
397.3034	28.27537
397.4697	22.25414
397.636	28.18844
397.8023	33.78497
397.9686	37.33075
398.1349	31.4846
398.3012	27.04943
398.4675	31.01251
398.6337	33.66309
398.8	30.27907
398.9662	31.72851
399.1325	32.91321
399.2988	35.74678
399.465	33.47824
399.6313	31.09598
399.7975	29.513
399.9637	32.49691
400.1299	33.6486
400.2961	33.35201
400.4624	30.36345
400.6286	30.80666
400.7948	31.98576
400.961	32.23199
401.1272	34.19835
401.2934	36.41571
401.4595	40.08798
401.6257	35.09491
401.7919	33.7472
401.9581	32.61029
402.1242	33.91434
402.2904	31.98961
402.4565	34.19497
402.6227	34.00872
402.7888	37.41061
402.955	35.33908
403.1211	35.28747
403.2872	32.52357
403.4533	36.02184
403.6194	37.76123
403.7856	34.89601
403.9517	36.36197
404.1177	38.13375
404.2838	29.71636
404.4499	33.60569
404.616	32.62714
404.7821	32.60413
404.9482	33.8857
405.1142	37.34338
405.2803	36.56719
405.4464	33.78238
405.6124	36.94409
405.7784	31.26183
405.9445	35.05042
406.1105	36.96213
406.2766	32.86581
406.4426	36.11475
406.6086	37.2393
406.7746	35.01157
406.9406	34.68473
407.1066	37.36573
407.2726	35.66169
407.4386	37.22567
407.6046	38.64262
407.7706	40.16404
407.9366	38.7005
408.1025	39.23348
408.2685	38.35579
408.4344	37.46478
408.6004	44.39193
408.7664	39.56809
408.9323	44.9638
409.0983	44.36894
409.2642	41.31963
409.4301	42.4389
409.596	41.63699
409.762	39.58952
409.9279	39.5016
410.0938	38.15555
410.2597	36.95615
410.4256	34.32698
410.5915	45.30381
410.7574	47.58925
410.9232	41.44559
411.0891	41.819
411.255	47.52752
411.4209	44.36121
411.5867	43.42536
411.7526	47.44491
411.9184	47.37551
412.0843	44.41478
412.2501	42.67844
412.4159	47.03481
412.5818	46.10879
412.7476	46.99004
412.9134	42.70969
413.0792	41.58286
413.245	40.82481
413.4108	44.98742
413.5766	42.80988
413.7424	47.35649
413.9082	52.26603
414.074	45.39998
414.2397	48.62044
414.4055	46.80559
414.5713	44.60226
414.737	42.11843
414.9028	43.84479
415.0685	47.29068
415.2343	48.92664
415.4	48.06778
415.5658	47.24506
415.7315	45.86544
415.8972	46.10257
416.0629	49.81375
416.2286	45.19234
416.3943	47.11289
416.56	46.8891
416.7257	48.2753
416.8914	42.70061
417.0571	42.99423
417.2228	45.25251
417.3884	47.99642
417.5541	43.89905
417.7198	41.63259
417.8854	48.3809
418.0511	50.97857
418.2167	49.78046
418.3824	45.58572
418.548	44.71322
418.7136	46.79863
418.8792	45.71651
419.0449	52.10505
419.2105	51.11913
419.3761	49.78229
419.5417	53.6948
419.7073	48.91678
419.8729	50.76761
420.0385	46.54986
420.204	49.92893
420.3696	50.93769
420.5352	51.97252
420.7007	53.95832
420.8663	55.74383
421.0319	52.78597
421.1974	55.78845
421.3629	55.89291
421.5285	48.98248
421.694	52.30998
421.8595	51.01787
422.0251	56.96559
422.1906	56.81189
422.3561	51.65184
422.5216	48.20674
422.6871	48.39505
422.8526	52.07499
423.0181	53.94625
423.1835	60.46964
423.349	57.04718
423.5145	53.54174
423.68	55.71512
423.8454	57.66423
424.0109	57.77184
424.1763	61.18155
424.3418	57.2486
424.5072	54.0784
424.6726	52.34162
424.838	52.34835
425.0035	54.32472
425.1689	49.5956
425.3343	54.17593
425.4997	59.59851
425.6651	61.60983
425.8305	63.04709
425.9959	59.10727
426.1613	56.49961
426.3267	54.20514
426.492	58.42089
426.6574	55.38455
426.8228	61.80569
426.9881	56.88903
427.1534	51.57827
427.3188	53.84384
427.4841	51.52342
427.6495	55.35791
427.8148	60.83685
427.9801	52.51082
428.1454	55.60859
428.3107	54.56026
428.476	64.43244
428.6414	65.47654
428.8066	57.36673
428.9719	55.17184
429.1372	56.0682
429.3025	55.40874
429.4678	60.30506
429.633	55.06183
429.7983	55.32182
429.9636	50.00911
430.1288	55.45245
430.294	48.70726
430.4593	47.60786
430.6245	51.73224
430.7897	53.03135
430.955	52.94335
431.1202	51.631
431.2854	53.15881
431.4506	55.84822
431.6158	62.67273
431.781	67.91509
431.9462	66.44272
432.1114	61.93447
432.2766	59.64518
432.4417	57.10474
432.6069	59.54316
432.772	61.5542
432.9372	62.24621
433.1024	62.77263
433.2675	64.22854
433.4326	61.16312
433.5977	64.14385
433.7629	58.566
433.928	58.67999
434.0931	55.48523
434.2582	57.2425
434.4233	63.94672
434.5884	67.07995
434.7535	70.03848
434.9186	66.63792
435.0837	63.09803
435.2488	62.74583
435.4138	68.6794
435.5789	69.62594
435.744	77.14119
435.909	70.73617
436.0741	72.03847
436.2391	74.2295
436.4042	71.8082
436.5692	76.10183
436.7342	70.67146
436.8992	74.54182
437.0643	75.92738
437.2293	74.78781
437.3943	71.94507
437.5593	69.50782
437.7243	68.70536
437.8893	70.95562
438.0542	71.86887
438.2192	65.39053
438.3842	68.32324
438.5491	63.21038
438.7141	61.98579
438.8791	72.64433
439.044	69.96547
439.209	70.74281
439.3739	70.62238
439.5388	72.28104
439.7037	74.74774
439.8687	77.26595
440.0336	74.63622
440.1985	74.82261
440.3634	67.22582
440.5283	73.88451
440.6932	78.7489
440.8581	81.72778
441.0229	84.80115
441.1878	83.33261
441.3527	77.64175
441.5175	79.76264
441.6824	73.89174
441.8472	74.18456
442.0121	78.55873
442.1769	84.37267
442.3418	80.87783
442.5066	78.81518
442.6714	81.84743
442.8362	84.54156
443.001	85.73401
443.1659	88.37522
443.3307	76.04553
443.4955	74.20396
443.6602	78.58977
443.825	85.07663
443.9898	83.57626
444.1546	78.22973
444.3193	80.37132
444.4841	77.2412
444.6488	83.11608
444.8136	83.54521
444.9783	83.23437
445.1431	86.86404
445.3078	81.9333
445.4725	76.37998
445.6372	82.94405
445.802	78.42267
445.9667	76.16829
446.1314	73.77152
446.2961	77.97234
446.4608	83.86762
446.6255	83.73138
446.7901	85.31935
446.9548	82.30671
447.1195	89.69688
447.2841	86.95338
447.4488	87.25236
447.6134	89.51271
447.7781	90.71376
447.9427	88.09951
448.1074	87.23363
448.272	85.98553
448.4366	87.86937
448.6012	93.0771
448.7658	88.80746
448.9305	84.32906
449.095	88.63081
449.2596	86.67099
449.4242	84.6808
449.5888	88.89498
449.7534	95.0291
449.9179	94.01247
450.0825	89.9366
450.2471	92.18314
450.4116	88.16444
450.5762	95.09861
450.7407	96.886
450.9052	91.04051
451.0698	94.24535
451.2343	92.75785
451.3988	91.52598
451.5633	96.13976
451.7278	95.65911
451.8923	87.43519
452.0568	86.48071
452.2213	89.84352
452.3858	95.22468
452.5503	97.48373
452.7148	89.22714
452.8792	83.70803
453.0437	84.83377
453.2081	84.78943
453.3726	88.09956
453.537	92.17372
453.7015	101.7909
453.8659	102.9433
454.0303	93.35985
454.1947	101.6522
454.3592	100.9358
454.5236	96.09968
454.688	94.90124
454.8524	91.87711
455.0168	92.86712
455.1811	90.36491
455.3455	92.22336
455.5099	93.48684
455.6743	92.76488
455.8386	99.69089
456.003	104.2439
456.1673	106.1268
456.3317	98.79109
456.496	97.00086
456.6603	98.85683
456.8246	104.1435
456.989	104.482
457.1533	102.7921
457.3176	103.081
457.4819	102.1138
457.6462	105.8893
457.8105	102.5976
457.9748	100.9653
458.1391	98.32029
458.3033	101.7872
458.4676	104.1334
458.6319	105.137
458.7961	100.1252
458.9604	97.18054
459.1246	93.44492
459.2888	98.93919
459.4531	102.9805
459.6173	101.2081
459.7815	93.28214
459.9457	103.9801
460.11	99.84942
460.2741	102.0468
460.4384	107.1099
460.6025	101.6937
460.7667	104.8844
460.9309	105.616
461.0951	103.6606
461.2592	103.3605
461.4234	108.0424
461.5876	107.0218
461.7517	101.5731
461.9159	103.1966
462.08	106.0174
462.2441	106.9602
462.4082	111.9223
462.5724	108.6368
462.7365	102.5642
462.9006	106.4384
463.0647	108.75
463.2288	107.3505
463.3929	102.1685
463.557	103.792
463.721	103.2441
463.8851	99.05474
464.0492	99.28954
464.2132	106.5132
464.3773	110.8425
464.5414	105.2022
464.7054	104.8239
464.8694	102.1275
465.0334	103.5594
465.1975	106.9696
465.3615	101.982
465.5255	101.4037
465.6895	108.256
465.8535	105.2682
466.0175	105.4524
466.1815	112.3152
466.3455	107.5621
466.5095	100.9331
466.6734	99.09541
466.8374	99.55336
467.0014	98.84011
467.1653	101.7489
467.3293	106.6571
467.4932	107.466
467.6571	106.199
467.8211	111.0661
467.985	103.9792
468.1489	102.7764
468.3128	110.3488
468.4767	107.9693
468.6406	108.3939
468.8045	103.0788
468.9684	109.6112
469.1323	112.4371
469.2962	111.3467
469.46	114.595
469.6239	113.7026
469.7878	113.1944
469.9516	106.7164
470.1154	108.1319
470.2793	107.5939
470.4431	105.5182
470.607	105.8709
470.7708	108.0481
470.9346	107.9584
471.0984	105.7713
471.2622	112.9413
471.426	113.2991
471.5898	114.6177
471.7536	118.2923
471.9174	115.5265
472.0811	117.993
472.2449	116.0163
472.4087	119.5755
472.5724	112.1481
472.7362	114.5346
472.8999	113.9503
473.0637	109.4884
473.2274	112.9698
473.3911	112.2936
473.5548	120.1836
473.7185	121.4735
473.8822	118.4806
474.0459	115.137
474.2096	117.4762
474.3733	115.3167
474.537	119.4883
474.7007	115.4282
474.8643	124.4038
475.028	124.5292
475.1917	116.6644
475.3553	114.929
475.519	116.1577
475.6826	117.7568
475.8463	113.83
476.0099	115.8024
476.1735	116.1952
476.3371	116.2938
476.5007	118.2712
476.6643	111.3291
476.8279	111.0655
476.9915	118.3592
477.1551	116.8014
477.3187	117.1724
477.4823	118.4424
477.6458	123.9168
477.8094	128.5247
477.9729	127.8148
478.1365	126.9747
478.3	116.3729
478.4636	110.4363
478.6271	120.1547
478.7906	116.9404
478.9541	115.5304
479.1176	113.2385
479.2812	118.3607
479.4447	122.1348
479.6082	116.672
479.7716	116.2955
479.9351	119.0783
480.0986	118.3114
480.2621	116.7566
480.4255	115.9038
480.589	119.8919
480.7524	121.7035
480.9159	118.8417
481.0793	116.9313
481.2428	117.2323
481.4062	119.0367
481.5696	123.6248
481.733	122.1617
481.8964	122.9102
482.0598	118.1897
482.2232	114.352
482.3866	113.4936
482.55	113.0672
482.7134	122.1327
482.8768	115.7935
483.0401	115.9599
483.2035	116.7349
483.3668	118.5363
483.5302	118.3799
483.6935	117.3121
483.8568	113.315
484.0202	111.6033
484.1835	115.2555
484.3468	122.1805
484.5101	115.7252
484.6734	115.6566
484.8367	117.3749
485	122.1607
485.1633	116.4109
485.3266	117.8003
485.4899	116.5429
485.6531	117.9227
485.8164	109.3693
485.9796	97.28951
486.1429	93.87591
486.3061	89.96611
486.4694	105.7493
486.6326	119.4189
486.7958	115.3455
486.959	115.1103
487.1223	112.1247
487.2855	109.5993
487.4486	119.2316
487.6118	116.252
487.775	115.7548
487.9382	118.8513
488.1014	120.6106
488.2646	118.1447
488.4277	119.6507
488.5909	124.0988
488.754	125.7217
488.9171	109.9454
489.0803	115.0392
489.2434	116.3982
489.4066	116.1717
489.5697	127.7281
489.7328	125.7335
489.8959	125.4482
490.059	131.503
490.2221	123.7458
490.3852	127.7959
490.5482	121.677
490.7113	122.7473
490.8744	122.8889
491.0374	122.7166
491.2005	123.163
491.3636	123.2034
491.5266	123.9343
491.6896	131.3053
491.8527	121.7485
492.0157	108.3849
492.1787	110.9476
492.3417	122.822
492.5047	125.0649
492.6677	125.7253
492.8307	129.9859
492.9937	128.4036
493.1567	127.4471
493.3196	125.0087
493.4826	131.1032
493.6456	117.5196
493.8085	123.3863
493.9715	128.0925
494.1344	131.8362
494.2974	130.4435
494.4603	134.1734
494.6232	131.9922
494.7861	133.9778
494.949	132.0539
495.1119	129.3656
495.2748	136.6035
495.4377	133.9098
495.6006	126.7275
495.7635	117.4607
495.9264	120.984
496.0892	127.1056
496.2521	128.4265
496.4149	127.4841
496.5778	128.6527
496.7407	132.2417
496.9035	132.0587
497.0663	133.8286
497.2291	130.2139
497.3919	137.9413
497.5547	139.4609
497.7176	133.297
497.8804	132.1227
498.0432	124.6048
498.2059	125.6542
498.3687	127.2285
498.5315	124.8212
498.6942	129.373
498.857	126.4721
499.0198	127.0948
499.1825	130.5626
499.3452	131.4355
499.508	133.3049
499.6707	134.1668
499.8334	131.3893
499.9962	134.6501
500.1589	139.7644
500.3216	136.1482
500.4843	132.2651
500.6469	126.472
500.8096	131.1379
500.9723	131.4393
501.135	136.23
501.2976	135.7225
501.4603	123.1449
501.623	125.2225
501.7856	131.8475
501.9482	132.6847
502.1109	132.2376
502.2735	133.612
502.4361	132.6681
502.5987	140.3587
502.7614	138.1909
502.924	137.2416
503.0865	140.1254
503.2491	148.2005
503.4117	140.3975
503.5743	142.8864
503.7368	140.0279
503.8994	135.8476
504.062	136.9239
504.2245	132.7489
504.3871	135.3739
504.5496	144.9794
504.7121	147.3531
504.8746	149.0794
505.0372	149.6499
505.1997	148.0838
505.3622	150.1581
505.5247	148.8088
505.6872	155.5611
505.8497	156.5752
506.0121	154.601
506.1746	153.8773
506.3371	157.6656
506.4995	158.2096
506.662	152.423
506.8244	148.1388
506.9869	156.1885
507.1493	156.1886
507.3117	154.9128
507.4742	158.4116
507.6366	153.7911
507.799	155.0445
507.9614	143.9227
508.1238	146.4729
508.2862	145.585
508.4485	146.6171
508.6109	155.3439
508.7733	164.8499
508.9357	164.7012
509.098	169.0877
509.2604	166.3148
509.4227	166.9039
509.5851	167.5379
509.7474	159.1155
509.9097	158.8689
510.072	164.7261
510.2343	166.7804
510.3966	166.3008
510.5589	165.8965
510.7212	156.1499
510.8835	163.156
511.0458	170.3528
511.2081	171.7776
511.3703	171.7334
511.5326	174.2013
511.6949	168.9329
511.8571	178.4032
512.0193	175.2381
512.1816	171.3233
512.3438	172.7236
512.506	168.8514
512.6682	170.4247
512.8304	169.1284
512.9926	173.359
513.1548	171.3537
513.317	169.6593
513.4792	181.2858
513.6414	177.3167
513.8035	173.5128
513.9657	168.8097
514.1279	168.29
514.29	170.7495
514.4521	174.8705
514.6143	174.6425
514.7764	176.8794
514.9385	180.949
515.1006	179.542
515.2628	178.9522
515.4249	180.5393
515.587	182.0048
515.7491	191.7735
515.9111	185.5854
516.0732	183.3108
516.2353	178.1284
