SPECTRUM DATA FILE
SpectrumCount:	1
PixelCount:	3648
UserName:	ToughBook User
SampleName:	
LightSource:	
Comments:	
DeviceName:	Qwave
DeviceManufacturer:	Broadcom
DeviceSerialNo:	11311

Name:	last spectrum
Date:	2024-05-02T14:52:36.1349994+02:00
ExposureTime:	0.02
TemporalAvg:	1
IntensityUnit:	normalizedCounts
CCDLoadLevel:	0.05622346
Temperature:	33.14276
DiagramColor:	200
ProcessingSteps:	335

Wavelength [nm]	Intensity1
334.421	5.111073
334.5891	2.855451
334.7573	5.235332
334.9254	6.901837
335.0935	11.12785
335.2616	8.417695
335.4297	9.95041
335.5978	8.586035
335.7659	5.838069
335.934	6.468656
336.1021	4.007877
336.2701	1.423569
336.4382	7.353451
336.6063	3.906106
336.7744	7.952629
336.9424	10.67592
337.1105	9.221067
337.2785	9.52686
337.4466	4.437086
337.6146	8.97582
337.7827	8.126653
337.9507	7.009076
338.1187	3.351677
338.2867	5.804677
338.4548	4.441551
338.6228	5.587302
338.7908	11.53275
338.9588	4.810548
339.1268	13.58798
339.2948	10.23502
339.4628	6.920691
339.6308	6.336227
339.7988	6.955729
339.9667	3.515639
340.1347	10.60372
340.3027	8.191509
340.4707	12.26284
340.6386	7.255583
340.8066	6.823789
340.9745	7.472457
341.1425	5.970959
341.3104	7.315748
341.4784	9.433994
341.6463	10.80464
341.8142	6.994947
341.9821	9.700069
342.1501	8.0762
342.318	7.422349
342.4859	6.983442
342.6538	2.75123
342.8217	10.52055
342.9896	8.045264
343.1575	5.035686
343.3254	4.279983
343.4933	6.269862
343.6612	8.155928
343.829	12.03903
343.9969	7.988207
344.1648	8.908804
344.3326	7.217398
344.5005	6.663182
344.6683	7.73832
344.8362	4.789183
345.004	3.32599
345.1719	7.821166
345.3397	6.637126
345.5075	9.507767
345.6754	10.04313
345.8432	6.537999
346.011	8.937136
346.1788	5.308982
346.3466	8.401442
346.5144	6.922742
346.6822	8.895642
346.85	7.176344
347.0178	13.32747
347.1856	7.603456
347.3534	6.941031
347.5211	6.111761
347.6889	8.293672
347.8567	10.37155
348.0244	6.38887
348.1922	5.716407
348.3599	6.582381
348.5277	8.336724
348.6954	8.411344
348.8632	5.815691
349.0309	9.635895
349.1986	8.18282
349.3663	6.625514
349.5341	10.85703
349.7018	6.193093
349.8695	8.716666
350.0372	7.238785
350.2049	5.775787
350.3726	6.65108
350.5403	8.448028
350.7079	6.009068
350.8756	8.026575
351.0433	11.25418
351.211	9.762029
351.3786	9.892506
351.5463	9.035279
351.714	12.50398
351.8816	1.081605
352.0493	4.154542
352.2169	7.819098
352.3846	8.781822
352.5522	3.417271
352.7198	7.347835
352.8875	7.140533
353.0551	8.722986
353.2227	9.765084
353.3903	11.29099
353.5579	4.477072
353.7255	2.063332
353.8931	6.254973
354.0607	7.758107
354.2283	10.88286
354.3958	10.35358
354.5634	8.495527
354.731	7.080115
354.8986	6.457607
355.0661	8.335355
355.2337	6.746816
355.4012	14.5912
355.5688	11.2308
355.7363	11.40781
355.9039	7.944677
356.0714	9.039152
356.239	8.401856
356.4065	7.374884
356.574	9.483552
356.7415	7.665662
356.909	12.40823
357.0765	7.699905
357.244	8.331005
357.4115	4.09704
357.579	7.534814
357.7465	11.37424
357.914	10.06591
358.0815	7.595714
358.249	9.50615
358.4164	9.198261
358.5839	7.34522
358.7513	7.582192
358.9188	11.13028
359.0862	6.783245
359.2537	5.919042
359.4211	12.30841
359.5886	8.005466
359.756	10.17976
359.9234	10.08622
360.0909	10.29931
360.2583	8.88948
360.4257	9.554717
360.5931	6.117765
360.7605	7.391234
360.9279	12.75721
361.0953	13.09789
361.2627	7.829658
361.4301	5.353957
361.5974	7.829179
361.7648	11.96964
361.9322	9.766865
362.0995	7.966783
362.2669	6.693844
362.4343	9.169649
362.6016	8.652115
362.769	12.9124
362.9363	12.49604
363.1036	11.89828
363.271	5.442763
363.4383	10.76241
363.6056	10.01574
363.7729	10.28691
363.9402	10.619
364.1075	6.372272
364.2748	10.35446
364.4421	9.539145
364.6094	9.225317
364.7767	9.380536
364.944	13.17639
365.1113	13.92484
365.2786	14.77012
365.4458	12.57977
365.6131	7.823647
365.7803	17.0857
365.9476	11.00585
366.1148	9.743958
366.2821	9.016117
366.4493	9.31919
366.6166	10.2248
366.7838	9.666222
366.951	11.34089
367.1182	14.83317
367.2855	9.792161
367.4527	8.704511
367.6199	8.351489
367.7871	7.27587
367.9543	9.495771
368.1215	10.32105
368.2886	10.8819
368.4558	13.08488
368.623	9.080737
368.7902	10.35944
368.9573	7.599518
369.1245	7.971365
369.2917	7.340231
369.4588	8.250905
369.6259	11.56652
369.7931	12.89348
369.9602	11.33077
370.1274	13.23764
370.2945	12.40842
370.4616	7.904157
370.6287	11.52948
370.7958	11.24989
370.963	11.09941
371.1301	10.35074
371.2971	8.470938
371.4643	13.7427
371.6313	11.4643
371.7984	9.690511
371.9655	10.22795
372.1326	10.85583
372.2997	13.62353
372.4667	13.44198
372.6338	12.5724
372.8008	14.66824
372.9679	12.9894
373.1349	11.94094
373.3019	12.4827
373.469	13.45228
373.636	17.25064
373.803	12.09206
373.9701	12.6159
374.1371	13.80132
374.3041	12.55079
374.4711	12.96563
374.6381	7.953887
374.8051	2.88887
374.9721	8.081463
375.1391	11.47717
375.3061	11.63039
375.473	14.57584
375.64	14.21255
375.8069	14.14582
375.9739	11.90487
376.1409	13.77545
376.3078	10.60163
376.4748	14.50077
376.6417	11.70433
376.8087	11.55021
376.9756	14.45156
377.1425	13.69147
377.3094	14.26865
377.4763	14.51747
377.6432	9.073913
377.8102	8.705848
377.9771	11.33545
378.144	12.78011
378.3109	11.45742
378.4777	15.68043
378.6446	13.39378
378.8115	11.39302
378.9784	14.99971
379.1452	10.25274
379.3121	13.62757
379.4789	13.85334
379.6458	12.44837
379.8127	13.09172
379.9795	14.14493
380.1463	14.00064
380.3131	11.83687
380.48	14.48893
380.6468	16.12051
380.8136	15.87641
380.9804	10.07434
381.1472	17.37258
381.314	9.893112
381.4808	6.559257
381.6476	9.726376
381.8144	8.819126
381.9812	14.59694
382.148	9.911261
382.3147	9.252631
382.4815	9.894644
382.6483	10.17645
382.815	11.03082
382.9818	10.23048
383.1485	7.626794
383.3153	7.766534
383.482	8.283637
383.6487	8.026298
383.8155	11.46833
383.9822	10.03673
384.1489	11.49678
384.3156	8.396394
384.4823	11.61759
384.649	15.88633
384.8157	13.07554
384.9824	13.68316
385.1491	12.372
385.3158	17.16063
385.4825	19.62447
385.6491	17.75307
385.8158	12.18963
385.9825	15.99025
386.1491	13.71486
386.3157	12.15826
386.4824	10.23943
386.649	13.42189
386.8157	12.51675
386.9823	11.26165
387.1489	11.99175
387.3156	10.82901
387.4821	15.60753
387.6488	17.39296
387.8154	10.55759
387.982	12.22162
388.1486	8.298845
388.3152	16.11559
388.4818	18.4672
388.6483	10.82633
388.8149	11.89183
388.9815	12.00553
389.148	14.40685
389.3146	12.66428
389.4811	15.26807
389.6477	13.45073
389.8142	17.29619
389.9808	15.36315
390.1473	14.16448
390.3138	18.14147
390.4804	13.81387
390.6469	10.12552
390.8134	12.93307
390.9799	18.39635
391.1464	17.16163
391.3129	18.93723
391.4794	22.3558
391.6459	17.81286
391.8124	13.6187
391.9789	13.79979
392.1453	13.79225
392.3118	16.16531
392.4782	18.42692
392.6447	16.80715
392.8112	13.17085
392.9776	12.13566
393.144	13.48554
393.3105	12.21898
393.4769	8.271738
393.6433	13.88312
393.8098	14.43344
393.9762	15.91208
394.1426	18.90466
394.309	12.79301
394.4754	15.78681
394.6418	17.36427
394.8082	17.58159
394.9746	20.94945
395.141	19.25064
395.3073	19.35501
395.4737	22.1025
395.64	19.80382
395.8064	19.6685
395.9728	22.51944
396.1391	15.4194
396.3055	15.43293
396.4718	12.58924
396.6381	13.37464
396.8045	14.6665
396.9708	16.4691
397.1371	11.41044
397.3034	19.70268
397.4697	18.90095
397.636	18.05438
397.8023	20.57217
397.9686	20.46974
398.1349	19.84938
398.3012	23.01303
398.4675	20.81573
398.6337	20.48062
398.8	26.07745
398.9662	23.64497
399.1325	21.91841
399.2988	20.71678
399.465	22.0714
399.6313	21.9654
399.7975	22.43759
399.9637	21.89602
400.1299	23.33384
400.2961	23.48748
400.4624	22.32805
400.6286	24.59153
400.7948	20.74002
400.961	22.67018
401.1272	26.57876
401.2934	23.454
401.4595	23.36997
401.6257	19.06973
401.7919	22.68711
401.9581	25.07439
402.1242	27.33626
402.2904	30.60948
402.4565	24.6258
402.6227	22.02301
402.7888	23.10313
402.955	25.00631
403.1211	23.02616
403.2872	26.18534
403.4533	24.21131
403.6194	23.86961
403.7856	28.28091
403.9517	30.40462
404.1177	27.74239
404.2838	24.27256
404.4499	23.93672
404.616	24.87741
404.7821	25.18232
404.9482	22.95902
405.1142	27.99372
405.2803	24.9391
405.4464	21.81724
405.6124	25.20794
405.7784	25.15249
405.9445	21.96984
406.1105	24.71985
406.2766	23.35121
406.4426	25.96101
406.6086	22.66751
406.7746	24.13181
406.9406	23.3629
407.1066	27.95604
407.2726	26.95009
407.4386	27.14774
407.6046	27.15001
407.7706	27.38916
407.9366	22.81465
408.1025	27.6854
408.2685	29.20859
408.4344	30.87172
408.6004	27.7679
408.7664	30.8926
408.9323	26.63806
409.0983	31.47187
409.2642	34.34858
409.4301	34.1815
409.596	28.40519
409.762	28.06944
409.9279	27.9466
410.0938	23.04103
410.2597	23.01225
410.4256	30.47354
410.5915	32.85289
410.7574	37.55141
410.9232	36.45331
411.0891	30.2784
411.255	34.27818
411.4209	37.61556
411.5867	36.22797
411.7526	36.21992
411.9184	31.43728
412.0843	32.70664
412.2501	30.62717
412.4159	31.28984
412.5818	29.44058
412.7476	35.22886
412.9134	35.95994
413.0792	34.40199
413.245	30.72648
413.4108	34.67702
413.5766	39.1636
413.7424	40.68166
413.9082	41.37025
414.074	40.09105
414.2397	35.37149
414.4055	32.46579
414.5713	35.03948
414.737	32.68309
414.9028	34.35399
415.0685	35.66246
415.2343	36.59161
415.4	33.38839
415.5658	33.22415
415.7315	34.98961
415.8972	34.09441
416.0629	31.33268
416.2286	38.30228
416.3943	36.34079
416.56	33.29033
416.7257	33.6392
416.8914	34.36015
417.0571	35.54361
417.2228	35.56735
417.3884	35.21358
417.5541	33.94892
417.7198	35.36136
417.8854	38.78628
418.0511	33.07232
418.2167	34.35628
418.3824	39.40882
418.548	39.88768
418.7136	38.13829
418.8792	37.83162
419.0449	40.63989
419.2105	42.1706
419.3761	35.24211
419.5417	37.13156
419.7073	34.2791
419.8729	35.36132
420.0385	39.10628
420.204	38.57763
420.3696	39.86222
420.5352	40.61087
420.7007	46.71351
420.8663	42.12606
421.0319	37.51705
421.1974	37.43672
421.3629	39.20376
421.5285	41.82886
421.694	39.53706
421.8595	38.90274
422.0251	40.67833
422.1906	42.17744
422.3561	41.2376
422.5216	38.65223
422.6871	35.36606
422.8526	37.59964
423.0181	40.11943
423.1835	42.07338
423.349	41.12215
423.5145	35.53665
423.68	44.8959
423.8454	45.48403
424.0109	43.64306
424.1763	45.53392
424.3418	43.72368
424.5072	41.89598
424.6726	44.76109
424.838	42.38552
425.0035	41.88864
425.1689	40.18188
425.3343	42.04041
425.4997	40.3296
425.6651	40.90479
425.8305	42.37265
425.9959	39.91742
426.1613	45.56921
426.3267	47.55667
426.492	47.82744
426.6574	45.86215
426.8228	48.43961
426.9881	41.13216
427.1534	40.99841
427.3188	41.15764
427.4841	41.48486
427.6495	47.5325
427.8148	46.28512
427.9801	44.55954
428.1454	44.29568
428.3107	47.58041
428.476	45.61534
428.6414	39.30742
428.8066	40.88657
428.9719	37.06062
429.1372	42.94467
429.3025	41.92153
429.4678	45.94083
429.633	46.63869
429.7983	38.40979
429.9636	31.12735
430.1288	38.13525
430.294	40.15028
430.4593	39.77705
430.6245	34.49905
430.7897	31.89982
430.955	35.39516
431.1202	33.42752
431.2854	39.09435
431.4506	47.93348
431.6158	53.73448
431.781	55.68902
431.9462	57.96531
432.1114	50.25656
432.2766	49.88507
432.4417	46.2739
432.6069	42.1631
432.772	44.20759
432.9372	50.47888
433.1024	50.04427
433.2675	53.37336
433.4326	54.83535
433.5977	52.52605
433.7629	49.65465
433.928	43.0215
434.0931	39.57343
434.2582	43.85476
434.4233	47.36989
434.5884	51.0712
434.7535	55.10717
434.9186	52.82051
435.0837	51.57493
435.2488	51.60032
435.4138	46.19508
435.5789	51.90057
435.744	50.18675
435.909	54.06606
436.0741	53.95446
436.2391	57.00479
436.4042	57.59599
436.5692	57.50716
436.7342	57.4388
436.8992	58.04722
437.0643	58.60608
437.2293	54.80802
437.3943	58.68491
437.5593	53.75601
437.7243	55.62519
437.8893	56.85794
438.0542	59.91396
438.2192	49.7649
438.3842	46.47515
438.5491	48.41405
438.7141	50.33271
438.8791	48.40707
439.044	56.2169
439.209	56.87812
439.3739	53.09977
439.5388	55.86687
439.7037	64.01577
439.8687	60.23318
440.0336	59.95332
440.1985	55.94636
440.3634	59.30754
440.5283	51.6228
440.6932	54.33513
440.8581	59.26871
441.0229	55.48864
441.1878	60.16146
441.3527	64.18868
441.5175	57.29803
441.6824	57.38003
441.8472	56.95592
442.0121	61.5972
442.1769	65.00682
442.3418	59.71112
442.5066	61.60051
442.6714	64.44227
442.8362	66.68812
443.001	64.78162
443.1659	64.3997
443.3307	61.5595
443.4955	62.45742
443.6602	54.95625
443.825	67.99152
443.9898	67.28109
444.1546	68.56212
444.3193	62.32175
444.4841	65.00199
444.6488	67.16924
444.8136	64.86818
444.9783	62.44462
445.1431	68.02366
445.3078	63.61669
445.4725	66.95448
445.6372	63.73309
445.802	57.67406
445.9667	61.78981
446.1314	63.4669
446.2961	65.31851
446.4608	65.59472
446.6255	68.14162
446.7901	65.51804
446.9548	66.61415
447.1195	66.25078
447.2841	71.88065
447.4488	67.62383
447.6134	70.77875
447.7781	71.28526
447.9427	68.12666
448.1074	70.06312
448.272	71.28571
448.4366	67.57472
448.6012	74.1521
448.7658	70.18153
448.9305	75.14777
449.095	73.00616
449.2596	74.87135
449.4242	70.04972
449.5888	69.99834
449.7534	73.60882
449.9179	72.51146
450.0825	72.12728
450.2471	70.39318
450.4116	80.38076
450.5762	81.71222
450.7407	82.77533
450.9052	79.0607
451.0698	78.60921
451.2343	73.61383
451.3988	78.68349
451.5633	79.4826
451.7278	75.54056
451.8923	78.94769
452.0568	80.60835
452.2213	73.88686
452.3858	78.273
452.5503	73.12845
452.7148	68.77647
452.8792	68.3534
453.0437	75.26865
453.2081	76.2463
453.3726	74.65828
453.537	76.53289
453.7015	78.08211
453.8659	77.54843
454.0303	75.57685
454.1947	78.75457
454.3592	78.7311
454.5236	76.47149
454.688	78.92569
454.8524	78.40096
455.0168	78.00042
455.1811	75.20006
455.3455	81.45695
455.5099	79.92316
455.6743	76.81695
455.8386	77.78551
456.003	84.34051
456.1673	80.50365
456.3317	82.84496
456.496	84.41674
456.6603	79.50732
456.8246	77.64259
456.989	79.10188
457.1533	88.76146
457.3176	89.78556
457.4819	87.95848
457.6462	83.16841
457.8105	86.30807
457.9748	78.87148
458.1391	83.50936
458.3033	76.16029
458.4676	71.27647
458.6319	83.6597
458.7961	81.98263
458.9604	79.60997
459.1246	81.07178
459.2888	80.4536
459.4531	87.43593
459.6173	87.32523
459.7815	83.76373
459.9457	77.76167
460.11	76.20621
460.2741	76.28436
460.4384	81.93233
460.6025	84.17367
460.7667	90.29559
460.9309	88.52097
461.0951	84.2317
461.2592	81.16856
461.4234	80.40127
461.5876	83.36208
461.7517	83.52803
461.9159	81.37444
462.08	87.71121
462.2441	85.31916
462.4082	82.86833
462.5724	88.9876
462.7365	90.51905
462.9006	84.56795
463.0647	87.24342
463.2288	86.70309
463.3929	83.03624
463.557	85.40036
463.721	83.16309
463.8851	83.39249
464.0492	84.77555
464.2132	80.8689
464.3773	85.02163
464.5414	84.19407
464.7054	79.98093
464.8694	84.11411
465.0334	86.38909
465.1975	83.73432
465.3615	84.34657
465.5255	87.48451
465.6895	93.03463
465.8535	89.45963
466.0175	87.72152
466.1815	91.91944
466.3455	86.49163
466.5095	80.10151
466.6734	81.5043
466.8374	79.79053
467.0014	83.46227
467.1653	88.99963
467.3293	90.30231
467.4932	88.51933
467.6571	84.849
467.8211	85.69254
467.985	84.55051
468.1489	87.23526
468.3128	81.63381
468.4767	84.08211
468.6406	87.16257
468.8045	86.20453
468.9684	90.60966
469.1323	91.04612
469.2962	85.85751
469.46	87.98905
469.6239	89.33788
469.7878	92.39485
469.9516	88.39826
470.1154	85.37537
470.2793	81.45411
470.4431	83.2963
470.607	89.45012
470.7708	90.42107
470.9346	89.86341
471.0984	83.11311
471.2622	86.82336
471.426	92.21343
471.5898	94.47144
471.7536	91.93203
471.9174	96.65533
472.0811	93.4047
472.2449	95.31203
472.4087	93.53186
472.5724	101.3754
472.7362	87.17943
472.8999	87.56631
473.0637	89.92409
473.2274	89.71758
473.3911	95.38554
473.5548	89.39365
473.7185	91.7304
473.8822	95.95103
474.0459	94.72749
474.2096	86.77591
474.3733	90.63972
474.537	100.9992
474.7007	95.55686
474.8643	94.34821
475.028	95.35066
475.1917	101.3092
475.3553	95.63223
475.519	90.47853
475.6826	86.27988
475.8463	92.03456
476.0099	91.6919
476.1735	86.67318
476.3371	85.82571
476.5007	90.42648
476.6643	90.92535
476.8279	94.19382
476.9915	92.88419
477.1551	92.78744
477.3187	93.82658
477.4823	94.86658
477.6458	92.92291
477.8094	95.44379
477.9729	98.46156
478.1365	105.4531
478.3	98.42954
478.4636	93.97488
478.6271	92.75552
478.7906	90.91204
478.9541	89.76604
479.1176	94.16885
479.2812	94.61144
479.4447	94.01991
479.6082	91.89355
479.7716	96.29771
479.9351	94.49073
480.0986	89.21926
480.2621	94.49114
480.4255	92.96745
480.589	89.96803
480.7524	90.21275
480.9159	91.04384
481.0793	89.15384
481.2428	89.27761
481.4062	94.28333
481.5696	101.548
481.733	101.4339
481.8964	97.72041
482.0598	97.58511
482.2232	96.79565
482.3866	94.13764
482.55	95.19917
482.7134	97.27897
482.8768	95.38641
483.0401	99.33397
483.2035	95.47116
483.3668	92.11504
483.5302	94.08717
483.6935	91.99815
483.8568	95.84409
484.0202	93.80177
484.1835	92.61417
484.3468	90.74365
484.5101	97.76467
484.6734	96.04889
484.8367	95.14236
485	97.76273
485.1633	97.38461
485.3266	95.57545
485.4899	90.71358
485.6531	86.59729
485.8164	90.444
485.9796	78.40411
486.1429	74.02025
486.3061	79.46091
486.4694	84.51826
486.6326	86.18004
486.7958	92.5459
486.959	91.02822
487.1223	86.64693
487.2855	86.37218
487.4486	93.82352
487.6118	93.83993
487.775	95.51292
487.9382	97.13155
488.1014	99.9132
488.2646	99.03058
488.4277	98.40675
488.5909	97.56462
488.754	92.60371
488.9171	91.22146
489.0803	86.78946
489.2434	89.83512
489.4066	96.22074
489.5697	105.353
489.7328	107.8988
489.8959	106.5506
490.059	101.982
490.2221	100.5998
490.3852	98.94846
490.5482	100.1523
490.7113	101.6036
490.8744	101.4628
491.0374	92.92355
491.2005	93.14036
491.3636	95.48397
491.5266	99.21072
491.6896	94.78586
491.8527	92.48896
492.0157	88.87141
492.1787	91.92284
492.3417	101.9657
492.5047	101.6543
492.6677	100.7105
492.8307	106.4533
492.9937	96.96396
493.1567	92.53661
493.3196	97.90359
493.4826	95.04215
493.6456	93.96257
493.8085	97.71373
493.9715	99.70183
494.1344	96.26291
494.2974	104.1087
494.4603	107.7732
494.6232	104.3134
494.7861	109.6997
494.949	110.8559
495.1119	108.6441
495.2748	107.6928
495.4377	109.0986
495.6006	98.6469
495.7635	103.0522
495.9264	102.3448
496.0892	110.7519
496.2521	105.1288
496.4149	112.5339
496.5778	104.7368
496.7407	104.2157
496.9035	102.6037
497.0663	107.0156
497.2291	107.2765
497.3919	115.3055
497.5547	109.7119
497.7176	112.6308
497.8804	105.6131
498.0432	105.3138
498.2059	99.51906
498.3687	97.38856
498.5315	101.2635
498.6942	106.6608
498.857	109.9289
499.0198	106.1001
499.1825	107.7344
499.3452	108.8066
499.508	105.6231
499.6707	102.7419
499.8334	107.8607
499.9962	104.7183
500.1589	113.6541
500.3216	105.8344
500.4843	103.3128
500.6469	105.1264
500.8096	111.0908
500.9723	117.706
501.135	111.2116
501.2976	102.9304
501.4603	102.03
501.623	100.1735
501.7856	108.106
501.9482	106.1853
502.1109	106.2619
502.2735	113.6963
502.4361	118.3021
502.5987	114.9843
502.7614	106.8471
502.924	109.958
503.0865	114.9403
503.2491	118.9806
503.4117	117.6567
503.5743	116.448
503.7368	115.8406
503.8994	112.7961
504.062	111.3762
504.2245	111.8902
504.3871	113.6747
504.5496	120.1351
504.7121	125.1796
504.8746	120.5119
505.0372	116.8435
505.1997	120.4468
505.3622	125.4288
505.5247	131.084
505.6872	125.0763
505.8497	125.9864
506.0121	131.3511
506.1746	134.0174
506.3371	128.1301
506.4995	122.4325
506.662	123.8065
506.8244	121.1279
506.9869	121.5955
507.1493	127.7576
507.3117	132.3026
507.4742	126.8167
507.6366	132.8297
507.799	125.5121
507.9614	129.2381
508.1238	123.0638
508.2862	119.4439
508.4485	129.5312
508.6109	128.3059
508.7733	131.9977
508.9357	135.347
509.098	135.6433
509.2604	131.9826
509.4227	137.1569
509.5851	137.4126
509.7474	133.3928
509.9097	132.2287
510.072	133.2325
510.2343	139.1923
510.3966	135.5545
510.5589	134.5108
510.7212	132.5508
510.8835	134.0246
511.0458	140.9034
511.2081	141.7583
511.3703	141.1904
511.5326	143.1097
511.6949	142.9904
511.8571	150.3312
512.0193	146.656
512.1816	138.2439
512.3438	135.3976
512.506	139.8015
512.6682	136.8986
512.8304	139.9921
512.9926	144.4746
513.1548	148.3693
513.317	146.6584
513.4792	141.7568
513.6414	141.5387
513.8035	140.9584
513.9657	140.0777
514.1279	141.0813
514.29	141.7749
514.4521	150.5693
514.6143	144.1367
514.7764	147.7266
514.9385	150.3287
515.1006	153.3325
515.2628	150.1869
515.4249	145.7838
515.587	150.729
515.7491	150.4664
515.9111	162.2026
516.0732	169.6166
516.2353	163.3832
