SPECTRUM DATA FILE
SpectrumCount:	1
PixelCount:	3648
UserName:	ToughBook User
SampleName:	
LightSource:	
Comments:	
DeviceName:	Qwave
DeviceManufacturer:	Broadcom
DeviceSerialNo:	11311

Name:	last spectrum
Date:	2024-05-02T14:52:02.5745557+02:00
ExposureTime:	0.02
TemporalAvg:	1
IntensityUnit:	normalizedCounts
CCDLoadLevel:	0.07356741
Temperature:	32.92099
DiagramColor:	200
ProcessingSteps:	335

Wavelength [nm]	Intensity1
334.421	26.18837
334.5891	19.68621
334.7573	19.35363
334.9254	24.78239
335.0935	23.42289
335.2616	21.11485
335.4297	23.65476
335.5978	19.93027
335.7659	18.89155
335.934	23.10013
336.1021	21.84242
336.2701	22.34046
336.4382	26.55788
336.6063	25.21708
336.7744	23.43672
336.9424	18.27898
337.1105	18.93989
337.2785	19.07572
337.4466	22.45389
337.6146	21.77171
337.7827	20.56219
337.9507	22.22523
338.1187	22.29655
338.2867	20.80032
338.4548	20.27315
338.6228	23.73352
338.7908	18.45739
338.9588	15.69339
339.1268	19.33927
339.2948	23.44069
339.4628	19.21753
339.6308	19.34356
339.7988	16.75073
339.9667	20.15128
340.1347	17.2573
340.3027	18.39996
340.4707	20.95744
340.6386	23.85355
340.8066	22.51182
340.9745	18.4901
341.1425	16.08534
341.3104	18.54487
341.4784	20.26565
341.6463	20.56631
341.8142	17.03841
341.9821	21.76208
342.1501	17.061
342.318	18.35983
342.4859	23.33297
342.6538	24.75624
342.8217	22.19928
342.9896	21.78273
343.1575	20.22825
343.3254	20.16534
343.4933	20.82825
343.6612	17.90783
343.829	20.02675
343.9969	21.34112
344.1648	21.71653
344.3326	19.50817
344.5005	24.34495
344.6683	21.96848
344.8362	25.31588
345.004	27.88582
345.1719	22.82275
345.3397	22.02752
345.5075	22.80824
345.6754	21.29377
345.8432	21.67193
346.011	30.51729
346.1788	21.25885
346.3466	22.29762
346.5144	20.18842
346.6822	20.6567
346.85	15.57519
347.0178	17.05553
347.1856	20.21122
347.3534	18.42756
347.5211	19.03491
347.6889	21.97895
347.8567	21.9618
348.0244	20.19376
348.1922	21.46881
348.3599	22.307
348.5277	22.25455
348.6954	26.31556
348.8632	23.00565
349.0309	24.9143
349.1986	18.3392
349.3663	15.29425
349.5341	19.47128
349.7018	18.21011
349.8695	18.30942
350.0372	22.66571
350.2049	23.51055
350.3726	22.05982
350.5403	22.07754
350.7079	22.79402
350.8756	22.05061
351.0433	25.60503
351.211	25.54079
351.3786	22.19755
351.5463	21.87258
351.714	22.10201
351.8816	23.14866
352.0493	19.6231
352.2169	22.48487
352.3846	22.30884
352.5522	19.07035
352.7198	26.14518
352.8875	24.48196
353.0551	26.18722
353.2227	22.28775
353.3903	22.48212
353.5579	21.78751
353.7255	24.59999
353.8931	28.28551
354.0607	25.89888
354.2283	26.79408
354.3958	22.43249
354.5634	25.62635
354.731	24.23983
354.8986	28.20113
355.0661	24.13339
355.2337	24.5357
355.4012	26.32618
355.5688	19.42158
355.7363	24.71232
355.9039	23.70082
356.0714	25.29279
356.239	26.38786
356.4065	21.48811
356.574	23.68499
356.7415	24.6517
356.909	25.58366
357.0765	27.17744
357.244	23.908
357.4115	26.00794
357.579	22.96618
357.7465	16.87534
357.914	20.60893
358.0815	20.91102
358.249	20.63536
358.4164	20.42356
358.5839	24.3571
358.7513	24.69236
358.9188	26.06257
359.0862	23.06542
359.2537	17.08054
359.4211	21.80089
359.5886	23.87904
359.756	18.47561
359.9234	23.6052
360.0909	22.09238
360.2583	22.98969
360.4257	20.86377
360.5931	20.51227
360.7605	22.16945
360.9279	23.79052
361.0953	26.86494
361.2627	26.24789
361.4301	26.13525
361.5974	27.28347
361.7648	23.96771
361.9322	24.19207
362.0995	26.53436
362.2669	23.25309
362.4343	21.84634
362.6016	25.02116
362.769	25.79743
362.9363	29.4137
363.1036	24.97744
363.271	21.91913
363.4383	29.76027
363.6056	29.82072
363.7729	28.58912
363.9402	32.40292
364.1075	27.38054
364.2748	28.73068
364.4421	28.64884
364.6094	26.2131
364.7767	26.90842
364.944	26.39616
365.1113	32.18966
365.2786	33.16505
365.4458	34.24062
365.6131	27.24492
365.7803	30.58467
365.9476	28.55443
366.1148	31.43145
366.2821	27.06742
366.4493	32.43201
366.6166	31.10331
366.7838	29.60349
366.951	32.61031
367.1182	31.30635
367.2855	25.49955
367.4527	26.10636
367.6199	24.45769
367.7871	26.11952
367.9543	25.34959
368.1215	23.92992
368.2886	30.29267
368.4558	26.67896
368.623	31.35328
368.7902	25.64047
368.9573	24.04316
369.1245	24.11004
369.2917	24.93521
369.4588	30.91701
369.6259	26.74403
369.7931	26.33294
369.9602	25.06443
370.1274	26.08176
370.2945	32.07163
370.4616	25.81628
370.6287	33.50911
370.7958	31.01658
370.963	27.86459
371.1301	30.97137
371.2971	30.30329
371.4643	29.23075
371.6313	31.0999
371.7984	26.52025
371.9655	27.22836
372.1326	28.66275
372.2997	30.28998
372.4667	30.73912
372.6338	32.11246
372.8008	27.40705
372.9679	34.38468
373.1349	27.60662
373.3019	29.44565
373.469	29.01918
373.636	32.84792
373.803	34.7322
373.9701	30.27183
374.1371	29.376
374.3041	33.42759
374.4711	28.87709
374.6381	29.57008
374.8051	30.0715
374.9721	33.81384
375.1391	32.63964
375.3061	33.27156
375.473	33.67062
375.64	30.50105
375.8069	30.07785
375.9739	31.63124
376.1409	33.13749
376.3078	31.61979
376.4748	30.99434
376.6417	27.17824
376.8087	27.67916
376.9756	33.92842
377.1425	31.55704
377.3094	29.6
377.4763	33.17218
377.6432	27.3052
377.8102	33.88361
377.9771	30.42318
378.144	35.53376
378.3109	33.62908
378.4777	32.04264
378.6446	26.00209
378.8115	29.20925
378.9784	30.79955
379.1452	29.50579
379.3121	29.81116
379.4789	28.94455
379.6458	25.5178
379.8127	29.33326
379.9795	31.97695
380.1463	33.98906
380.3131	30.41438
380.48	28.25414
380.6468	31.30973
380.8136	31.27342
380.9804	30.93082
381.1472	32.45849
381.314	30.30234
381.4808	27.42944
381.6476	29.94051
381.8144	32.00776
381.9812	29.52883
382.148	27.75157
382.3147	31.48608
382.4815	28.58243
382.6483	28.86073
382.815	30.78092
382.9818	29.98751
383.1485	28.2697
383.3153	21.69544
383.482	31.47809
383.6487	32.5971
383.8155	34.33495
383.9822	34.89676
384.1489	33.60964
384.3156	31.30407
384.4823	30.81158
384.649	33.73239
384.8157	34.86751
384.9824	38.8562
385.1491	34.47019
385.3158	36.6473
385.4825	30.36523
385.6491	30.68463
385.8158	37.60197
385.9825	37.18559
386.1491	33.30329
386.3157	35.46307
386.4824	34.16841
386.649	38.15501
386.8157	34.48367
386.9823	36.40639
387.1489	33.31232
387.3156	34.89894
387.4821	38.00091
387.6488	32.13066
387.8154	30.69429
387.982	31.8872
388.1486	37.2887
388.3152	40.03095
388.4818	35.041
388.6483	35.39149
388.8149	36.88418
388.9815	41.89873
389.148	39.32385
389.3146	35.09163
389.4811	37.10538
389.6477	39.7267
389.8142	37.38469
389.9808	35.64859
390.1473	35.44679
390.3138	33.51733
390.4804	36.19437
390.6469	37.08106
390.8134	35.04237
390.9799	33.63751
391.1464	35.31525
391.3129	40.15472
391.4794	40.31425
391.6459	38.27502
391.8124	37.35884
391.9789	37.22465
392.1453	35.52158
392.3118	32.43892
392.4782	34.61396
392.6447	31.87901
392.8112	35.82265
392.9776	33.87946
393.144	35.03199
393.3105	26.10457
393.4769	34.4488
393.6433	32.43677
393.8098	34.114
393.9762	35.36926
394.1426	34.7785
394.309	32.65393
394.4754	30.88092
394.6418	41.02783
394.8082	39.91539
394.9746	40.99277
395.141	42.38757
395.3073	36.74758
395.4737	39.2
395.64	44.16802
395.8064	42.51431
395.9728	41.12862
396.1391	39.25494
396.3055	34.48158
396.4718	35.65002
396.6381	33.45698
396.8045	38.55744
396.9708	38.31015
397.1371	40.57975
397.3034	40.95086
397.4697	36.00249
397.636	40.49685
397.8023	43.47247
397.9686	45.44884
398.1349	49.02298
398.3012	47.85046
398.4675	43.66521
398.6337	45.58539
398.8	45.31653
398.9662	46.87666
399.1325	50.89653
399.2988	46.70317
399.465	48.11107
399.6313	46.28602
399.7975	48.16366
399.9637	46.80918
400.1299	50.11298
400.2961	45.38725
400.4624	48.027
400.6286	44.99895
400.7948	45.46179
400.961	51.17645
401.1272	52.40714
401.2934	47.56971
401.4595	51.11612
401.6257	48.13604
401.7919	52.71902
401.9581	50.19293
402.1242	48.27158
402.2904	45.76784
402.4565	45.28954
402.6227	49.62521
402.7888	50.9157
402.955	50.14157
403.1211	45.43861
403.2872	41.58396
403.4533	43.5755
403.6194	45.674
403.7856	48.53857
403.9517	49.12299
404.1177	50.27848
404.2838	49.16959
404.4499	43.76194
404.616	46.21663
404.7821	46.78888
404.9482	47.30562
405.1142	46.68646
405.2803	48.16871
405.4464	51.24359
405.6124	46.88259
405.7784	46.12315
405.9445	49.29218
406.1105	45.90547
406.2766	46.48094
406.4426	54.81376
406.6086	53.72763
406.7746	47.80219
406.9406	53.25863
407.1066	52.66121
407.2726	51.22792
407.4386	49.14711
407.6046	47.07328
407.7706	54.66771
407.9366	56.77384
408.1025	55.31038
408.2685	60.55573
408.4344	56.59031
408.6004	56.10961
408.7664	53.6392
408.9323	56.71239
409.0983	65.271
409.2642	54.92631
409.4301	60.10139
409.596	56.46403
409.762	51.86961
409.9279	51.61108
410.0938	53.13705
410.2597	56.49834
410.4256	62.67922
410.5915	58.31234
410.7574	55.81141
410.9232	59.15839
411.0891	60.70289
411.255	62.69797
411.4209	61.2151
411.5867	62.66414
411.7526	57.07894
411.9184	64.47341
412.0843	63.18599
412.2501	57.71824
412.4159	57.22242
412.5818	61.07898
412.7476	62.83534
412.9134	61.41776
413.0792	62.39738
413.245	59.49529
413.4108	61.19726
413.5766	56.60125
413.7424	59.10033
413.9082	67.64945
414.074	66.98241
414.2397	66.62214
414.4055	60.34683
414.5713	56.56358
414.737	59.16264
414.9028	58.9861
415.0685	63.08018
415.2343	63.37568
415.4	60.70535
415.5658	60.95253
415.7315	63.71617
415.8972	60.78719
416.0629	59.62669
416.2286	63.3189
416.3943	66.70599
416.56	64.54996
416.7257	62.52563
416.8914	60.41578
417.0571	62.53643
417.2228	60.28045
417.3884	55.8237
417.5541	64.23782
417.7198	60.83979
417.8854	64.56435
418.0511	60.2892
418.2167	62.06493
418.3824	58.62504
418.548	65.90018
418.7136	60.74648
418.8792	58.32172
419.0449	63.72738
419.2105	65.62309
419.3761	62.50727
419.5417	60.1032
419.7073	64.96857
419.8729	65.55743
420.0385	61.02365
420.204	62.34668
420.3696	66.2551
420.5352	65.67581
420.7007	70.74101
420.8663	64.14941
421.0319	67.27191
421.1974	69.82983
421.3629	70.58081
421.5285	67.48158
421.694	67.22423
421.8595	70.72281
422.0251	65.81344
422.1906	72.39929
422.3561	77.38006
422.5216	69.34088
422.6871	63.71512
422.8526	67.55579
423.0181	71.60779
423.1835	75.38309
423.349	70.59063
423.5145	69.33752
423.68	71.29839
423.8454	75.60171
424.0109	75.88693
424.1763	77.08331
424.3418	75.12733
424.5072	76.65596
424.6726	74.14451
424.838	69.74217
425.0035	74.16665
425.1689	69.82934
425.3343	74.31927
425.4997	76.85223
425.6651	76.41873
425.8305	78.81907
425.9959	78.92733
426.1613	74.31223
426.3267	76.29152
426.492	82.02434
426.6574	80.84904
426.8228	76.06996
426.9881	65.73356
427.1534	68.0181
427.3188	65.99794
427.4841	71.22076
427.6495	72.70773
427.8148	76.60806
427.9801	79.19115
428.1454	80.16882
428.3107	76.17734
428.476	79.68757
428.6414	80.74841
428.8066	74.83125
428.9719	70.49741
429.1372	72.55421
429.3025	67.53812
429.4678	71.45403
429.633	72.77159
429.7983	66.43758
429.9636	68.2726
430.1288	69.55667
430.294	67.85347
430.4593	63.09428
430.6245	65.74326
430.7897	61.90229
430.955	63.20768
431.1202	65.81905
431.2854	72.32008
431.4506	79.13831
431.6158	80.29299
431.781	85.09331
431.9462	84.77394
432.1114	77.91182
432.2766	74.37891
432.4417	76.89859
432.6069	76.18784
432.772	76.60289
432.9372	77.80966
433.1024	85.84708
433.2675	83.78705
433.4326	76.95944
433.5977	79.40242
433.7629	73.37209
433.928	69.2785
434.0931	69.67205
434.2582	71.47963
434.4233	81.3203
434.5884	75.92551
434.7535	81.74033
434.9186	84.28237
435.0837	83.72036
435.2488	80.60455
435.4138	84.45221
435.5789	88.47639
435.744	86.62692
435.909	82.78892
436.0741	82.04008
436.2391	85.11416
436.4042	90.71953
436.5692	88.2888
436.7342	88.14499
436.8992	88.70196
437.0643	87.18789
437.2293	87.89496
437.3943	90.60165
437.5593	87.71232
437.7243	87.17827
437.8893	91.2354
438.0542	88.18243
438.2192	89.50576
438.3842	87.63872
438.5491	81.13557
438.7141	86.08775
438.8791	89.57883
439.044	89.40104
439.209	92.00264
439.3739	94.75044
439.5388	91.4482
439.7037	89.65073
439.8687	98.26051
440.0336	95.92939
440.1985	94.46077
440.3634	88.3497
440.5283	88.6948
440.6932	91.2934
440.8581	97.28577
441.0229	91.51411
441.1878	98.78317
441.3527	104.4471
441.5175	99.71697
441.6824	93.92679
441.8472	95.40811
442.0121	96.85588
442.1769	101.641
442.3418	100.4783
442.5066	99.08076
442.6714	100.5138
442.8362	96.34518
443.001	99.27997
443.1659	99.01189
443.3307	95.76865
443.4955	95.87459
443.6602	98.5566
443.825	98.06429
443.9898	101.7913
444.1546	101.8901
444.3193	97.43251
444.4841	96.91603
444.6488	98.08141
444.8136	100.3686
444.9783	106.8058
445.1431	104.1103
445.3078	97.06027
445.4725	95.03125
445.6372	95.98036
445.802	94.41222
445.9667	96.71414
446.1314	95.29929
446.2961	98.81452
446.4608	99.83482
446.6255	100.9387
446.7901	102.3401
446.9548	99.10284
447.1195	103.8136
447.2841	107.2204
447.4488	107.0742
447.6134	112.4403
447.7781	103.8538
447.9427	103.3003
448.1074	99.61478
448.272	103.453
448.4366	102.5523
448.6012	103.3662
448.7658	103.3161
448.9305	105.9538
449.095	107.5497
449.2596	106.7343
449.4242	106.6969
449.5888	106.5143
449.7534	104.9299
449.9179	109.8671
450.0825	114.2565
450.2471	112.6844
450.4116	112.404
450.5762	111.4084
450.7407	115.1431
450.9052	115.5215
451.0698	115.8908
451.2343	116.3368
451.3988	113.4654
451.5633	113.1478
451.7278	113.3901
451.8923	111.9727
452.0568	112.1367
452.2213	110.784
452.3858	114.7591
452.5503	107.3601
452.7148	108.7946
452.8792	110.4916
453.0437	113.2699
453.2081	109.3165
453.3726	110.0533
453.537	108.1897
453.7015	115.8258
453.8659	110.2731
454.0303	116.858
454.1947	117.2712
454.3592	115.6651
454.5236	114.0921
454.688	120.965
454.8524	116.175
455.0168	109.8274
455.1811	114.8525
455.3455	115.6118
455.5099	120.3642
455.6743	123.0408
455.8386	122.993
456.003	122.0357
456.1673	119.5143
456.3317	122.2367
456.496	123.0361
456.6603	120.3102
456.8246	125.5349
456.989	124.2706
457.1533	124.4893
457.3176	125.948
457.4819	130.3401
457.6462	123.9706
457.8105	120.9059
457.9748	121.3375
458.1391	119.7246
458.3033	128.0329
458.4676	122.0656
458.6319	123.6547
458.7961	123.4883
458.9604	123.3721
459.1246	126.2439
459.2888	121.4079
459.4531	120.7584
459.6173	124.2242
459.7815	123.6363
459.9457	122.3027
460.11	125.6826
460.2741	118.8471
460.4384	121.0583
460.6025	117.8978
460.7667	125.1582
460.9309	127.0412
461.0951	125.4455
461.2592	124.8376
461.4234	123.4259
461.5876	121.2695
461.7517	121.2449
461.9159	122.124
462.08	126.2148
462.2441	124.1678
462.4082	131.6191
462.5724	122.1954
462.7365	127.3154
462.9006	118.9023
463.0647	123.72
463.2288	121.4876
463.3929	121.4625
463.557	125.0378
463.721	121.9158
463.8851	123.4842
464.0492	128.6668
464.2132	126.0799
464.3773	122.3523
464.5414	124.7585
464.7054	124.2507
464.8694	120.5649
465.0334	120.4776
465.1975	126.5565
465.3615	116.9089
465.5255	124.2575
465.6895	130.5965
465.8535	124.9281
466.0175	123.4201
466.1815	129.0918
466.3455	128.4933
466.5095	125.4556
466.6734	119.3143
466.8374	120.0484
467.0014	127.4506
467.1653	131.2422
467.3293	129.2038
467.4932	125.7875
467.6571	122.4566
467.8211	122.303
467.985	125.831
468.1489	126.5199
468.3128	134.0066
468.4767	133.7472
468.6406	130.2181
468.8045	129.1613
468.9684	129.9663
469.1323	131.1691
469.2962	130.4781
469.46	133.8782
469.6239	135.9931
469.7878	132.6382
469.9516	131.8286
470.1154	124.8658
470.2793	123.4864
470.4431	131.7918
470.607	136.8173
470.7708	132.5537
470.9346	125.7307
471.0984	126.333
471.2622	130.8299
471.426	134.1771
471.5898	136.6163
471.7536	140.1692
471.9174	134.8634
472.0811	137.2968
472.2449	132.9702
472.4087	134.6681
472.5724	139.451
472.7362	136.1532
472.8999	136.8403
473.0637	133.9501
473.2274	135.8159
473.3911	129.6981
473.5548	135.2658
473.7185	138.2967
473.8822	136.0706
474.0459	137.9312
474.2096	140.9906
474.3733	133.6074
474.537	137.2855
474.7007	140.2567
474.8643	138.9691
475.028	143.0297
475.1917	150.9323
475.3553	140.7791
475.519	144.8182
475.6826	143.3156
475.8463	137.4208
476.0099	137.7984
476.1735	138.9727
476.3371	135.6708
476.5007	135.7474
476.6643	138.7673
476.8279	137.7672
476.9915	134.0709
477.1551	140.638
477.3187	140.892
477.4823	139.3481
477.6458	138.2515
477.8094	140.3057
477.9729	140.7211
478.1365	140.6849
478.3	138.5193
478.4636	139.9285
478.6271	136.6329
478.7906	133.642
478.9541	137.2123
479.1176	136.9435
479.2812	139.3695
479.4447	145.4279
479.6082	137.1725
479.7716	139.8791
479.9351	140.2381
480.0986	138.8382
480.2621	136.1326
480.4255	138.1445
480.589	135.7307
480.7524	135.2639
480.9159	133.792
481.0793	140.4094
481.2428	140.099
481.4062	144.5934
481.5696	146.4387
481.733	141.2456
481.8964	144.8471
482.0598	140.8015
482.2232	139.8534
482.3866	137.2559
482.55	136.4607
482.7134	139.4948
482.8768	140.789
483.0401	140.0637
483.2035	140.7571
483.3668	134.1256
483.5302	141.4454
483.6935	139.5478
483.8568	138.1546
484.0202	140.2975
484.1835	134.3864
484.3468	138.9583
484.5101	138.8253
484.6734	140.9399
484.8367	139.2332
485	139.8808
485.1633	142.9605
485.3266	140.0695
485.4899	129.4741
485.6531	124.5107
485.8164	125.3444
485.9796	116.606
486.1429	113.2412
486.3061	115.5345
486.4694	126.0081
486.6326	134.1107
486.7958	136.0669
486.959	134.0692
487.1223	132.7981
487.2855	133.2034
487.4486	136.0568
487.6118	138.238
487.775	145.3946
487.9382	141.1658
488.1014	149.6029
488.2646	149.3254
488.4277	146.8586
488.5909	144.4409
488.754	134.9049
488.9171	135.9334
489.0803	143.3834
489.2434	146.8492
489.4066	139.4301
489.5697	147.6937
489.7328	151.2445
489.8959	149.0821
490.059	148.1199
490.2221	147.3469
490.3852	142.8257
490.5482	152.5542
490.7113	150.911
490.8744	154.6824
491.0374	146.1196
491.2005	137.7993
491.3636	149.3112
491.5266	147.8385
491.6896	150.8466
491.8527	147.7934
492.0157	131.0947
492.1787	146.5737
492.3417	143.9546
492.5047	150.2341
492.6677	147.7
492.8307	153.0316
492.9937	154.1199
493.1567	156.7218
493.3196	154.9157
493.4826	147.6159
493.6456	148.17
493.8085	150.2166
493.9715	146.6262
494.1344	156.7967
494.2974	154.6756
494.4603	160.7143
494.6232	158.9588
494.7861	153.8441
494.949	152.1684
495.1119	154.8704
495.2748	155.2981
495.4377	154.1579
495.6006	153.9206
495.7635	149.398
495.9264	155.212
496.0892	156.4897
496.2521	162.4269
496.4149	166.8047
496.5778	163.5251
496.7407	157.2134
496.9035	155.1915
497.0663	160.5062
497.2291	162.0183
497.3919	153.8634
497.5547	159.574
497.7176	155.0164
497.8804	155.7446
498.0432	159.2011
498.2059	158.1551
498.3687	148.6149
498.5315	151.3698
498.6942	157.7202
498.857	149.7186
499.0198	155.2854
499.1825	155.6858
499.3452	166.7169
499.508	165.2286
499.6707	160.3449
499.8334	155.1374
499.9962	162.701
500.1589	153.9824
500.3216	156.5628
500.4843	159.2014
500.6469	156.0348
500.8096	155.2144
500.9723	159.6737
501.135	161.2927
501.2976	161.1123
501.4603	157.678
501.623	154.7433
501.7856	154.9137
501.9482	152.1316
502.1109	160.1386
502.2735	166.2999
502.4361	162.5782
502.5987	161.6662
502.7614	164.5354
502.924	164.5125
503.0865	167.5426
503.2491	167.7941
503.4117	162.4521
503.5743	166.8433
503.7368	165.6479
503.8994	166.7082
504.062	160.2292
504.2245	156.4147
504.3871	153.5626
504.5496	171.0066
504.7121	174.6828
504.8746	175.5527
505.0372	171.642
505.1997	173.3425
505.3622	179.2227
505.5247	178.4372
505.6872	177.1687
505.8497	178.6023
506.0121	179.522
506.1746	183.1051
506.3371	179.8621
506.4995	176.5944
506.662	179.321
506.8244	178.2214
506.9869	183.6607
507.1493	185.546
507.3117	181.773
507.4742	179.5678
507.6366	183.3078
507.799	179.8691
507.9614	178.0662
508.1238	176.475
508.2862	177.2823
508.4485	192.3777
508.6109	182.0711
508.7733	189.9466
508.9357	188.8602
509.098	191.0336
509.2604	198.6104
509.4227	194.9865
509.5851	193.4128
509.7474	188.6467
509.9097	184.9952
510.072	186.1183
510.2343	200.8843
510.3966	204.498
510.5589	190.5148
510.7212	195.0646
510.8835	189.961
511.0458	191.7477
511.2081	195.5081
511.3703	201.8064
511.5326	200.482
511.6949	204.0616
511.8571	206.8779
512.0193	197.2804
512.1816	200.1769
512.3438	200.104
512.506	197.3139
512.6682	206.7984
512.8304	206.6134
512.9926	201.6301
513.1548	202.8936
513.317	207.4596
513.4792	206.1759
513.6414	204.0081
513.8035	199.7271
513.9657	205.2647
514.1279	211.6371
514.29	206.9712
514.4521	208.534
514.6143	212.472
514.7764	207.899
514.9385	204.6892
515.1006	205.9727
515.2628	212.7489
515.4249	218.5467
515.587	223.3773
515.7491	223.1695
515.9111	221.3877
516.0732	213.0515
516.2353	215.1346
516.3973	215.8355
