SPECTRUM DATA FILE
SpectrumCount:	1
PixelCount:	3648
UserName:	ToughBook User
SampleName:	
LightSource:	
Comments:	
DeviceName:	Qwave
DeviceManufacturer:	Broadcom
DeviceSerialNo:	11311

Name:	last spectrum
Date:	2024-05-02T14:48:28.3256603+02:00
ExposureTime:	0.02
TemporalAvg:	1
IntensityUnit:	normalizedCounts
CCDLoadLevel:	0.9475325
Temperature:	31.49347
DiagramColor:	200
ProcessingSteps:	335

Wavelength [nm]	Intensity1
334.421	188.8993
334.5891	190.4016
334.7573	193.505
334.9254	192.9261
335.0935	198.5966
335.2616	202.7027
335.4297	209.253
335.5978	203.8866
335.7659	181.3679
335.934	166.0138
336.1021	158.8478
336.2701	159.8604
336.4382	176.7952
336.6063	177.2133
336.7744	163.6748
336.9424	152.58
337.1105	155.6878
337.2785	168.1586
337.4466	187.8215
337.6146	195.5047
337.7827	191.1571
337.9507	181.4725
338.1187	182.4527
338.2867	191.7274
338.4548	203.903
338.6228	211.367
338.7908	208.7592
338.9588	205.7387
339.1268	195.7623
339.2948	196.2265
339.4628	205.2827
339.6308	221.2573
339.7988	227.2837
339.9667	241.1629
340.1347	237.4879
340.3027	227.6083
340.4707	209.3763
340.6386	210.8952
340.8066	215.8467
340.9745	213.1157
341.1425	212.6288
341.3104	209.6353
341.4784	209.0456
341.6463	222.1588
341.8142	233.5573
341.9821	243.3474
342.1501	236.1154
342.318	244.7228
342.4859	233.4639
342.6538	239.8395
342.8217	247.8265
342.9896	252.1247
343.1575	249.7444
343.3254	243.7192
343.4933	231.7669
343.6612	226.3588
343.829	208.7021
343.9969	189.5117
344.1648	165.6786
344.3326	176.8489
344.5005	190.0486
344.6683	220.8138
344.8362	235.8664
345.004	250.2916
345.1719	263.2623
345.3397	249.6835
345.5075	244.1571
345.6754	242.2891
345.8432	222.9135
346.011	220.4336
346.1788	229.9853
346.3466	239.6198
346.5144	244.2427
346.6822	257.1599
346.85	261.3488
347.0178	256.3037
347.1856	247.1917
347.3534	235.2378
347.5211	214.2732
347.6889	224.4233
347.8567	240.2059
348.0244	255.0876
348.1922	256.1778
348.3599	252.3453
348.5277	252.7461
348.6954	255.3448
348.8632	251.5202
349.0309	233.9841
349.1986	228.3893
349.3663	235.7742
349.5341	243.6179
349.7018	262.1039
349.8695	280.7225
350.0372	303.5895
350.2049	315.1048
350.3726	322.0535
350.5403	314.0959
350.7079	309.2392
350.8756	300.0794
351.0433	286.8856
351.211	276.3306
351.3786	278.3909
351.5463	293.4462
351.714	306.8875
351.8816	309.6379
352.0493	300.0826
352.2169	274.8834
352.3846	259.4045
352.5522	259.9621
352.7198	277.7605
352.8875	297.3711
353.0551	318.8698
353.2227	326.498
353.3903	332.2696
353.5579	335.9703
353.7255	341.8581
353.8931	344.738
354.0607	356.2729
354.2283	358.7866
354.3958	357.3654
354.5634	359.887
354.731	365.3896
354.8986	360.7229
355.0661	354.636
355.2337	342.045
355.4012	328.3805
355.5688	330.0179
355.7363	338.6901
355.9039	341.5987
356.0714	337.3689
356.239	331.2292
356.4065	315.5368
356.574	285.1662
356.7415	263.0551
356.909	253.5796
357.0765	263.2337
357.244	279.22
357.4115	297.2392
357.579	303.7739
357.7465	288.8262
357.914	255.0894
358.0815	240.9383
358.249	221.6349
358.4164	223.0548
358.5839	228.8058
358.7513	263.3031
358.9188	298.5138
359.0862	337.5877
359.2537	356.6075
359.4211	373.5731
359.5886	388.8003
359.756	408.8488
359.9234	412.6761
360.0909	393.4123
360.2583	372.951
360.4257	352.9759
360.5931	328.1745
360.7605	316.7679
360.9279	319.5735
361.0953	333.6819
361.2627	344.8223
361.4301	366.6227
361.5974	358.6086
361.7648	340.4964
361.9322	324.7637
362.0995	338.378
362.2669	377.5776
362.4343	420.7983
362.6016	450.719
362.769	450.0172
362.9363	422.9386
363.1036	381.739
363.271	349.4956
363.4383	356.483
363.6056	392.6222
363.7729	420.4389
363.9402	441.3602
364.1075	437.4202
364.2748	423.1266
364.4421	408.3662
364.6094	383.8535
364.7767	386.7543
364.944	400.2094
365.1113	433.3618
365.2786	472.6479
365.4458	485.9629
365.6131	508.4706
365.7803	517.8709
365.9476	525.2681
366.1148	524.2439
366.2821	502.8564
366.4493	507.1586
366.6166	493.2978
366.7838	499.0842
366.951	497.2921
367.1182	509.0331
367.2855	521.073
367.4527	522.2901
367.6199	498.8129
367.7871	476.9043
367.9543	463.941
368.1215	472.4306
368.2886	481.1532
368.4558	479.6049
368.623	462.1309
368.7902	473.8051
368.9573	506.781
369.1245	545.9483
369.2917	564.8922
369.4588	552.3653
369.6259	562.602
369.7931	577.496
369.9602	588.8477
370.1274	585.8042
370.2945	545.0834
370.4616	497.0037
370.6287	472.6242
370.7958	472.0544
370.963	507.0804
371.1301	578.4032
371.2971	622.4663
371.4643	652.4828
371.6313	625.014
371.7984	553.0858
371.9655	476.9963
372.1326	446.8329
372.2997	467.2224
372.4667	541.0215
372.6338	574.6755
372.8008	576.4254
372.9679	551.8408
373.1349	514.1286
373.3019	448.81
373.469	391.2824
373.636	389.7193
373.803	439.1441
373.9701	508.441
374.1371	552.2619
374.3041	535.7705
374.4711	469.1182
374.6381	416.1944
374.8051	406.3323
374.9721	435.7797
375.1391	509.9237
375.3061	591.3769
375.473	648.4285
375.64	630.0722
375.8069	569.7156
375.9739	541.5934
376.1409	560.524
376.3078	572.6196
376.4748	575.3638
376.6417	569.05
376.8087	592.4187
376.9756	605.202
377.1425	636.232
377.3094	686.3139
377.4763	713.5558
377.6432	726.1413
377.8102	750.2488
377.9771	773.5256
378.144	794.2934
378.3109	789.1127
378.4777	769.7421
378.6446	708.419
378.8115	659.9911
378.9784	639.4689
379.1452	639.4374
379.3121	621.776
379.4789	603.9541
379.6458	577.602
379.8127	577.1599
379.9795	612.3038
380.1463	679.9764
380.3131	734.7726
380.48	758.2164
380.6468	758.1183
380.8136	759.1646
380.9804	775.8793
381.1472	754.3484
381.314	697.2599
381.4808	636.8464
381.6476	592.8534
381.8144	579.475
381.9812	567.171
382.148	555.8084
382.3147	535.3545
382.4815	516.9692
382.6483	480.0162
382.815	464.1066
382.9818	471.0902
383.1485	462.9132
383.3153	457.8031
383.482	455.608
383.6487	457.8083
383.8155	467.4012
383.9822	493.349
384.1489	551.1998
384.3156	650.9053
384.4823	725.7531
384.649	751.3306
384.8157	750.5381
384.9824	725.7441
385.1491	726.603
385.3158	725.5602
385.4825	706.54
385.6491	650.2599
385.8158	599.1106
385.9825	603.5579
386.1491	651.9008
386.3157	723.0805
386.4824	766.9908
386.649	767.7058
386.8157	724.1251
386.9823	668.2339
387.1489	644.1942
387.3156	677.4778
387.4821	722.1761
387.6488	751.4099
387.8154	730.8466
387.982	680.6592
388.1486	671.174
388.3152	678.3801
388.4818	689.3723
388.6483	673.4668
388.8149	666.2484
388.9815	706.9015
389.148	805.7379
389.3146	856.4683
389.4811	882.2468
389.6477	896.566
389.8142	900.0994
389.9808	901.9119
390.1473	892.1214
390.3138	860.6212
390.4804	838.221
390.6469	855.1989
390.8134	923.4196
390.9799	996.6856
391.1464	1049.209
391.3129	1051.939
391.4794	1045.926
391.6459	1017.174
391.8124	966.0403
391.9789	907.1337
392.1453	854.5231
392.3118	840.0659
392.4782	831.7967
392.6447	750.9301
392.8112	638.3951
392.9776	509.602
393.144	397.8305
393.3105	338.7458
393.4769	332.5582
393.6433	408.4393
393.8098	546.9092
393.9762	673.9622
394.1426	753.632
394.309	809.0751
394.4754	863.1255
394.6418	930.0705
394.8082	1017.878
394.9746	1059.939
395.141	1081.45
395.3073	1095.123
395.4737	1099.96
395.64	1099.191
395.8064	1077.991
395.9728	1009.426
396.1391	893.7224
396.3055	773.4053
396.4718	639.0947
396.6381	525.3234
396.8045	436.989
396.9708	429.2464
397.1371	525.9041
397.3034	688.3401
397.4697	851.0333
397.636	991.3997
397.8023	1130.85
397.9686	1233.695
398.1349	1265.702
398.3012	1268.214
398.4675	1269.827
398.6337	1303.457
398.8	1362.777
398.9662	1402.07
399.1325	1430.781
399.2988	1432.269
399.465	1415.12
399.6313	1393.816
399.7975	1416.802
399.9637	1458.132
400.1299	1499.013
400.2961	1502.278
400.4624	1446.795
400.6286	1396.746
400.7948	1432.527
400.961	1505.518
401.1272	1555.049
401.2934	1572.537
401.4595	1584.269
401.6257	1583.07
401.7919	1575.875
401.9581	1597.142
402.1242	1623.439
402.2904	1619.421
402.4565	1617.698
402.6227	1609.652
402.7888	1613.84
402.955	1580.657
403.1211	1497.616
403.2872	1426.413
403.4533	1469.728
403.6194	1576.235
403.7856	1673.428
403.9517	1711.526
404.1177	1678.805
404.2838	1598.438
404.4499	1475.362
404.616	1411.028
404.7821	1485.26
404.9482	1634.933
405.1142	1715.261
405.2803	1692.322
405.4464	1627.475
405.6124	1589.617
405.7784	1585.379
405.9445	1607.663
406.1105	1610.081
406.2766	1556.031
406.4426	1500.108
406.6086	1537
406.7746	1632.533
406.9406	1690.753
407.1066	1669.903
407.2726	1667.555
407.4386	1668.566
407.6046	1674.879
407.7706	1646.09
407.9366	1671.824
408.1025	1784.601
408.2685	1822.036
408.4344	1822.302
408.6004	1839.922
408.7664	1921.108
408.9323	1984.313
409.0983	1971.917
409.2642	1922.974
409.4301	1864.507
409.596	1788.073
409.762	1712.364
409.9279	1606.575
410.0938	1506.337
410.2597	1487.416
410.4256	1578.533
410.5915	1741.034
410.7574	1825.99
410.9232	1867.054
411.0891	1896.172
411.255	1930.567
411.4209	2013.514
411.5867	2044.048
411.7526	2021.365
411.9184	1998.002
412.0843	1982.74
412.2501	1983.375
412.4159	1990.658
412.5818	1986.117
412.7476	1971.739
412.9134	1939.452
413.0792	1883.965
413.245	1836.338
413.4108	1856.025
413.5766	1939.263
413.7424	2055.931
413.9082	2127.206
414.074	2074.585
414.2397	1961.712
414.4055	1907.263
414.5713	1934.057
414.737	2018.464
414.9028	2046.334
415.0685	2026.47
415.2343	1984.32
415.4	1950.975
415.5658	1936.698
415.7315	1972.891
415.8972	2031.376
416.0629	2096.565
416.2286	2150.294
416.3943	2181.676
416.56	2161.818
416.7257	2127.155
416.8914	2098.435
417.0571	2045.546
417.2228	1977.9
417.3884	1932.96
417.5541	1939.7
417.7198	2010.682
417.8854	2046.525
418.0511	2059.143
418.2167	2061.407
418.3824	2070.719
418.548	2066.954
418.7136	2040.154
418.8792	2054.026
419.0449	2117.633
419.2105	2217.764
419.3761	2239.352
419.5417	2167.74
419.7073	2072.806
419.8729	1995.991
420.0385	1983.493
420.204	2034.395
420.3696	2131.31
420.5352	2244.594
420.7007	2328.327
420.8663	2355.685
421.0319	2371.989
421.1974	2377.973
421.3629	2355.828
421.5285	2307.746
421.694	2271.705
421.8595	2322.308
422.0251	2401.216
422.1906	2369.548
422.3561	2233.209
422.5216	2003.436
422.6871	1854.91
422.8526	1962.224
423.0181	2223.964
423.1835	2380.189
423.349	2342.739
423.5145	2238.786
423.68	2195.475
423.8454	2204.495
424.0109	2261.098
424.1763	2323.324
424.3418	2396.201
424.5072	2411.391
424.6726	2344.182
424.838	2248.116
425.0035	2187.021
425.1689	2235.344
425.3343	2276.646
425.4997	2320.167
425.6651	2321.621
425.8305	2276.833
425.9959	2191.988
426.1613	2180.251
426.3267	2314.841
426.492	2467.372
426.6574	2484.912
426.8228	2369.625
426.9881	2195.27
427.1534	2017.06
427.3188	1974.444
427.4841	2068.226
427.6495	2240.69
427.8148	2357.776
427.9801	2370.37
428.1454	2336.637
428.3107	2323.762
428.476	2309.73
428.6414	2232.81
428.8066	2138.583
428.9719	2095.34
429.1372	2131.161
429.3025	2187.152
429.4678	2209.665
429.633	2103.922
429.7983	1929.104
429.9636	1751.862
430.1288	1646.571
430.294	1656.53
430.4593	1703.746
430.6245	1668.252
430.7897	1601.792
430.955	1602.048
431.1202	1698.184
431.2854	1923.105
431.4506	2228.981
431.6158	2556.803
431.781	2773.807
431.9462	2852.792
432.1114	2712.213
432.2766	2466.242
432.4417	2189.275
432.6069	2105.139
432.772	2308.321
432.9372	2586.532
433.1024	2741.507
433.2675	2761.717
433.4326	2759.086
433.5977	2646.961
433.7629	2407.941
433.928	2122.876
434.0931	1994.525
434.2582	2143.156
434.4233	2384.909
434.5884	2629.933
434.7535	2755.051
434.9186	2783.804
435.0837	2696.733
435.2488	2584.962
435.4138	2580.747
435.5789	2703.688
435.744	2790.194
435.909	2823.263
436.0741	2875.151
436.2391	2950.344
436.4042	3015.268
436.5692	2999.448
436.7342	2974.223
436.8992	2913.586
437.0643	2865.384
437.2293	2829.984
437.3943	2746.99
437.5593	2696.906
437.7243	2753.127
437.8893	2861.879
438.0542	2825.945
438.2192	2552.411
438.3842	2290.404
438.5491	2299.923
438.7141	2489.479
438.8791	2674.774
439.044	2736.792
439.209	2782.436
439.3739	2832.892
439.5388	2870.617
439.7037	2952.753
439.8687	2984.017
440.0336	2911.749
440.1985	2819.313
440.3634	2712.478
440.5283	2691.084
440.6932	2709.361
440.8581	2858.497
441.0229	3030.219
441.1878	3157.111
441.3527	3141.481
441.5175	3020.436
441.6824	2970.116
441.8472	3104.69
442.0121	3240.519
442.1769	3235.117
442.3418	3167.31
442.5066	3123.441
442.6714	3152.063
442.8362	3195.524
443.001	3173.369
443.1659	3163.486
443.3307	3089.557
443.4955	3042.842
443.6602	3091.519
443.825	3233.831
443.9898	3314.396
444.1546	3225.456
444.3193	3170.014
444.4841	3223.807
444.6488	3317.28
444.8136	3373.88
444.9783	3364.551
445.1431	3342.615
445.3078	3223.666
445.4725	3063.477
445.6372	2962.683
445.802	2939.638
445.9667	3001.477
446.1314	3038.008
446.2961	3107.236
446.4608	3213.545
446.6255	3327.082
446.7901	3322.588
446.9548	3292.451
447.1195	3347.025
447.2841	3441.845
447.4488	3577.131
447.6134	3621.17
447.7781	3593.117
447.9427	3478.482
448.1074	3339.901
448.272	3298.625
448.4366	3449.075
448.6012	3589.955
448.7658	3579.534
448.9305	3490.635
449.095	3471.838
449.2596	3521.886
449.4242	3525.315
449.5888	3530.193
449.7534	3582.035
449.9179	3669.807
450.0825	3721.98
450.2471	3775.777
450.4116	3848.169
450.5762	3928.019
450.7407	3922.918
450.9052	3897.841
451.0698	3888.417
451.2343	3852.983
451.3988	3807.155
451.5633	3750.049
451.7278	3716.917
451.8923	3783.475
452.0568	3808.287
452.2213	3800.172
452.3858	3740.542
452.5503	3598.007
452.7148	3482.781
452.8792	3352.929
453.0437	3351.441
453.2081	3415.665
453.3726	3452.649
453.537	3499.937
453.7015	3632.171
453.8659	3793.519
454.0303	3807.173
454.1947	3781.862
454.3592	3763.041
454.5236	3745.14
454.688	3683.454
454.8524	3590.438
455.0168	3558.797
455.1811	3589.618
455.3455	3629.51
455.5099	3603.649
455.6743	3671.375
455.8386	3814.915
456.003	3918.227
456.1673	3908.784
456.3317	3832.476
456.496	3738.288
456.6603	3757.506
456.8246	3849.98
456.989	3887.387
457.1533	3843.666
457.3176	3824.161
457.4819	3884.037
457.6462	3961.949
457.8105	3891.209
457.9748	3769.27
458.1391	3666.482
458.3033	3615.195
458.4676	3607.022
458.6319	3661.01
458.7961	3764.048
458.9604	3845.294
459.1246	3847.011
459.2888	3768.662
459.4531	3719.959
459.6173	3740.889
459.7815	3730.25
459.9457	3719.675
460.11	3722.316
460.2741	3752.692
460.4384	3782.446
460.6025	3816.004
460.7667	3877.61
460.9309	3954.647
461.0951	3956.454
461.2592	3902.809
461.4234	3861.363
461.5876	3907.486
461.7517	3929.389
461.9159	3904.648
462.08	3927.581
462.2441	3963.506
462.4082	3985.813
462.5724	3990.579
462.7365	3999.026
462.9006	4000.048
463.0647	4004.051
463.2288	4001.986
463.3929	3984.484
463.557	3950.561
463.721	3886.536
463.8851	3860.664
464.0492	3882.23
464.2132	3939.369
464.3773	3951.916
464.5414	3891.525
464.7054	3780.927
464.8694	3753.55
465.0334	3864.349
465.1975	3970.522
465.3615	3990.448
465.5255	3957.667
465.6895	3955.699
465.8535	4049.059
466.0175	4154.99
466.1815	4156.91
466.3455	4054.604
466.5095	3900.209
466.6734	3737.25
466.8374	3671.641
467.0014	3764.673
467.1653	3939.877
467.3293	4014.02
467.4932	4094.948
467.6571	4124.297
467.8211	4099.486
467.985	4023.537
468.1489	3971.018
468.3128	4020.599
468.4767	4116.23
468.6406	4145.11
468.8045	4135.888
468.9684	4119.95
469.1323	4100.958
469.2962	4111.474
469.46	4159.75
469.6239	4175.508
469.7878	4131.408
469.9516	4003.627
470.1154	3903.136
470.2793	3854.031
470.4431	3875.56
470.607	3940.232
470.7708	3955.176
470.9346	3962.746
471.0984	4017.981
471.2622	4074.353
471.426	4081.446
471.5898	4099.836
471.7536	4201.077
471.9174	4305.01
472.0811	4344.357
472.2449	4332.861
472.4087	4323.971
472.5724	4276.637
472.7362	4176.372
472.8999	4040.059
473.0637	3965.029
473.2274	4009.843
473.3911	4097.257
473.5548	4112.225
473.7185	4104.626
473.8822	4133.772
474.0459	4186.277
474.2096	4214.682
474.3733	4227.266
474.537	4255.792
474.7007	4264.418
474.8643	4261.177
475.028	4251.892
475.1917	4214.661
475.3553	4143.662
475.519	4073.337
475.6826	4072.009
475.8463	4107.975
476.0099	4130.855
476.1735	4126.693
476.3371	4007.289
476.5007	3930.002
476.6643	3967.06
476.8279	4033.064
476.9915	4136.362
477.1551	4165.331
477.3187	4196.23
477.4823	4257.862
477.6458	4302.849
477.8094	4318.609
477.9729	4324.882
478.1365	4290.323
478.3	4235.746
478.4636	4169.642
478.6271	4116.732
478.7906	4079.102
478.9541	4089.29
479.1176	4127.956
479.2812	4224.943
479.4447	4329.125
479.6082	4359.207
479.7716	4306.748
479.9351	4200.918
480.0986	4173.433
480.2621	4202.352
480.4255	4214.503
480.589	4210.598
480.7524	4179.077
480.9159	4181.094
481.0793	4189.552
481.2428	4205.044
481.4062	4260.642
481.5696	4331.347
481.733	4361.063
481.8964	4384.275
482.0598	4366.008
482.2232	4287.255
482.3866	4199.615
482.55	4214.013
482.7134	4254.438
482.8768	4263.881
483.0401	4248.01
483.2035	4230.151
483.3668	4238.591
483.5302	4266.733
483.6935	4255.512
483.8568	4196.566
484.0202	4126.015
484.1835	4095.298
484.3468	4151.946
484.5101	4203.857
484.6734	4230.68
484.8367	4208.115
485	4180.752
485.1633	4176.986
485.3266	4113.522
485.4899	3985.818
485.6531	3855.604
485.8164	3653.067
485.9796	3337.109
486.1429	3039.401
486.3061	3057.451
486.4694	3358.061
486.6326	3711.385
486.7958	3898.129
486.959	3902.39
487.1223	3784.602
487.2855	3748.802
487.4486	3841.484
487.6118	3994.042
487.775	4094.274
487.9382	4185.028
488.1014	4240.42
488.2646	4216.212
488.4277	4136.162
488.5909	4029.476
488.754	3963.549
488.9171	3894.247
489.0803	3806.136
489.2434	3865.71
489.4066	4085.196
489.5697	4329.314
489.7328	4429.825
489.8959	4399.896
490.059	4333.794
490.2221	4291.491
490.3852	4263.173
490.5482	4255.385
490.7113	4280.759
490.8744	4220.978
491.0374	4101.943
491.2005	4048.763
491.3636	4140.675
491.5266	4243.28
491.6896	4167.55
491.8527	3910.145
492.0157	3705.2
492.1787	3690.3
492.3417	3843.796
492.5047	4003.069
492.6677	4138.516
492.8307	4212.159
492.9937	4283.185
493.1567	4250.471
493.3196	4151.016
493.4826	4093.172
493.6456	4040.608
493.8085	3980.539
493.9715	3977.323
494.1344	4095.483
494.2974	4252.593
494.4603	4318.443
494.6232	4312.353
494.7861	4322.998
494.949	4351.778
495.1119	4351.861
495.2748	4316.625
495.4377	4249.853
495.6006	4078.114
495.7635	3943.35
495.9264	3966.85
496.0892	4173.292
496.2521	4349.819
496.4149	4375.004
496.5778	4309.48
496.7407	4223.859
496.9035	4181.76
497.0663	4198.551
497.2291	4298.863
497.3919	4342.131
497.5547	4374.208
497.7176	4332.72
497.8804	4241.846
498.0432	4132.802
498.2059	3994.152
498.3687	3855.027
498.5315	3853.896
498.6942	4045.717
498.857	4245.944
499.0198	4278.887
499.1825	4269.76
499.3452	4251.789
499.508	4303.696
499.6707	4326.514
499.8334	4303.192
499.9962	4220.496
500.1589	4125.699
500.3216	4076.957
500.4843	4028.998
500.6469	3948.323
500.8096	4035.338
500.9723	4122.429
501.135	4151.82
501.2976	4045.055
501.4603	3950.573
501.623	3950.225
501.7856	3948.1
501.9482	3989.411
502.1109	4056.234
502.2735	4131.223
502.4361	4191.67
502.5987	4186.524
502.7614	4184.477
502.924	4225.695
503.0865	4304.782
503.2491	4396.998
503.4117	4382.583
503.5743	4266.051
503.7368	4175.525
503.8994	4032.631
504.062	3908.674
504.2245	3922.658
504.3871	4120.358
504.5496	4339.662
504.7121	4402.77
504.8746	4311.031
505.0372	4235.142
505.1997	4235.291
505.3622	4319.242
505.5247	4398.745
505.6872	4464.832
505.8497	4472.049
506.0121	4510.214
506.1746	4521.039
506.3371	4469.867
506.4995	4356.094
506.662	4281.417
506.8244	4276.775
506.9869	4327.624
507.1493	4325.84
507.3117	4291.029
507.4742	4271.421
507.6366	4257.229
507.799	4189.623
507.9614	4085.486
508.1238	4017.781
508.2862	4071.527
508.4485	4195.194
508.6109	4270.536
508.7733	4343.332
508.9357	4377.357
509.098	4385.105
509.2604	4439.634
509.4227	4423.992
509.5851	4329.847
509.7474	4159.768
509.9097	4024.208
510.072	4074.173
510.2343	4207.734
510.3966	4271.968
510.5589	4240.917
510.7212	4161.969
510.8835	4109.01
511.0458	4105.951
511.2081	4185.026
511.3703	4264.737
511.5326	4308.737
511.6949	4331.718
511.8571	4328.75
512.0193	4302.87
512.1816	4202.031
512.3438	4089.161
512.506	3974.415
512.6682	3951.913
512.8304	3986.38
512.9926	4036.556
513.1548	4054.248
513.317	4063.787
513.4792	4093.156
513.6414	4060.208
513.8035	3957.35
513.9657	3855.44
514.1279	3830.917
514.29	3854.292
514.4521	3884.14
514.6143	3897.491
514.7764	3955.363
514.9385	3964.038
515.1006	3974.734
515.2628	3986.625
515.4249	3985.314
515.587	4001.012
515.7491	4038.598
515.9111	4090.696
516.0732	4062.964
516.2353	3977.332
516.3973	3829.957
516.5594	3577.456
