SPECTRUM DATA FILE
SpectrumCount:	1
PixelCount:	3648
UserName:	ToughBook User
SampleName:	
LightSource:	
Comments:	
DeviceName:	Qwave
DeviceManufacturer:	Broadcom
DeviceSerialNo:	11311

Name:	last spectrum
Date:	2024-05-02T14:42:25.7045283+02:00
ExposureTime:	0.02
TemporalAvg:	1
IntensityUnit:	normalizedCounts
CCDLoadLevel:	0.0575185
Temperature:	30.95038
DiagramColor:	200
ProcessingSteps:	335

Wavelength [nm]	Intensity1
334.421	6.133893
334.5891	8.036087
334.7573	4.794035
334.9254	5.797922
335.0935	9.259992
335.2616	10.86262
335.4297	11.33042
335.5978	7.968625
335.7659	3.820905
335.934	5.386188
336.1021	7.733627
336.2701	3.326362
336.4382	5.861648
336.6063	2.690159
336.7744	5.73023
336.9424	6.497622
337.1105	7.140653
337.2785	6.404668
337.4466	7.618935
337.6146	11.42755
337.7827	11.38385
337.9507	4.554658
338.1187	9.24073
338.2867	4.305639
338.4548	4.782111
338.6228	6.905665
338.7908	5.341633
338.9588	6.000623
339.1268	7.482341
339.2948	10.40586
339.4628	10.47271
339.6308	10.43216
339.7988	10.65555
339.9667	7.943755
340.1347	5.168621
340.3027	3.325038
340.4707	6.393744
340.6386	11.87312
340.8066	8.360028
340.9745	3.883609
341.1425	8.534153
341.3104	8.218499
341.4784	10.97558
341.6463	5.828623
341.8142	7.65728
341.9821	7.81604
342.1501	9.979216
342.318	13.44054
342.4859	8.118457
342.6538	9.619514
342.8217	10.34329
342.9896	8.070061
343.1575	14.28779
343.3254	9.342506
343.4933	6.478301
343.6612	12.11028
343.829	11.26655
343.9969	8.514443
344.1648	6.720216
344.3326	6.404173
344.5005	7.384219
344.6683	8.619508
344.8362	9.767783
345.004	8.928096
345.1719	10.19295
345.3397	7.112216
345.5075	9.143785
345.6754	4.867401
345.8432	12.54394
346.011	10.60381
346.1788	9.737354
346.3466	9.616877
346.5144	10.13843
346.6822	9.486718
346.85	9.768409
347.0178	11.91713
347.1856	11.08923
347.3534	10.41417
347.5211	13.57302
347.6889	8.097016
347.8567	10.9864
348.0244	8.077179
348.1922	8.488887
348.3599	13.30871
348.5277	10.39449
348.6954	8.145295
348.8632	10.59738
349.0309	9.587593
349.1986	8.26193
349.3663	4.231098
349.5341	9.233502
349.7018	13.23123
349.8695	9.020414
350.0372	10.58907
350.2049	7.766729
350.3726	10.84369
350.5403	5.236952
350.7079	10.13591
350.8756	10.02746
351.0433	6.688787
351.211	6.132927
351.3786	10.60295
351.5463	11.56116
351.714	12.96865
351.8816	8.637202
352.0493	7.595798
352.2169	7.679457
352.3846	5.485136
352.5522	6.775493
352.7198	11.31594
352.8875	11.3537
353.0551	5.847911
353.2227	3.175175
353.3903	5.325321
353.5579	9.241696
353.7255	11.29141
353.8931	10.55075
354.0607	7.777112
354.2283	12.37525
354.3958	15.33293
354.5634	14.08744
354.731	13.04453
354.8986	13.66514
355.0661	10.20477
355.2337	7.754667
355.4012	11.49027
355.5688	16.3478
355.7363	11.86517
355.9039	10.29086
356.0714	6.783331
356.239	11.94523
356.4065	13.93692
356.574	10.81286
356.7415	7.87786
356.909	8.224243
357.0765	11.69783
357.244	12.42003
357.4115	9.341274
357.579	9.260792
357.7465	11.9189
357.914	6.862039
358.0815	6.773648
358.249	7.907085
358.4164	6.64703
358.5839	9.834575
358.7513	8.622528
358.9188	8.731295
359.0862	8.940311
359.2537	8.841883
359.4211	9.960705
359.5886	12.72148
359.756	10.77139
359.9234	9.605642
360.0909	10.50921
360.2583	5.284782
360.4257	6.313514
360.5931	10.18182
360.7605	14.3163
360.9279	10.98551
361.0953	10.72077
361.2627	11.10374
361.4301	13.77371
361.5974	8.389342
361.7648	11.15963
361.9322	10.53378
362.0995	8.428302
362.2669	13.60495
362.4343	14.08088
362.6016	9.55724
362.769	16.90308
362.9363	12.92947
363.1036	10.93382
363.271	13.62542
363.4383	16.56469
363.6056	9.385089
363.7729	11.07811
363.9402	9.115885
364.1075	8.031776
364.2748	10.98896
364.4421	15.66481
364.6094	10.35789
364.7767	10.90268
364.944	12.1967
365.1113	12.04766
365.2786	14.31973
365.4458	11.13411
365.6131	13.2711
365.7803	15.05016
365.9476	17.34591
366.1148	13.27141
366.2821	11.78705
366.4493	13.32566
366.6166	8.478985
366.7838	12.88842
366.951	12.4264
367.1182	7.825184
367.2855	11.77368
367.4527	12.86651
367.6199	13.54225
367.7871	11.80897
367.9543	12.59714
368.1215	9.985592
368.2886	7.815229
368.4558	10.32648
368.623	9.245958
368.7902	12.38718
368.9573	13.60872
369.1245	14.92203
369.2917	12.59088
369.4588	14.65154
369.6259	14.36116
369.7931	10.34071
369.9602	12.19129
370.1274	14.40932
370.2945	11.7648
370.4616	10.50998
370.6287	11.91172
370.7958	13.66643
370.963	10.90939
371.1301	13.70221
371.2971	11.78177
371.4643	9.78934
371.6313	11.84119
371.7984	11.70202
371.9655	8.511156
372.1326	15.50793
372.2997	13.16549
372.4667	9.645528
372.6338	11.72671
372.8008	11.22703
372.9679	16.69408
373.1349	14.17213
373.3019	15.73085
373.469	14.42182
373.636	10.28818
373.803	16.88937
373.9701	12.29351
374.1371	14.07681
374.3041	11.11663
374.4711	12.43707
374.6381	10.16969
374.8051	7.397847
374.9721	15.42066
375.1391	11.52732
375.3061	15.53884
375.473	10.02145
375.64	8.852791
375.8069	9.153395
375.9739	18.86509
376.1409	13.91495
376.3078	14.87879
376.4748	7.644032
376.6417	12.11723
376.8087	15.61965
376.9756	15.30576
377.1425	16.16748
377.3094	13.85943
377.4763	15.37383
377.6432	14.6806
377.8102	16.00753
377.9771	14.0969
378.144	13.21164
378.3109	13.49872
378.4777	11.94814
378.6446	9.125772
378.8115	15.93727
378.9784	15.60429
379.1452	8.598143
379.3121	9.404163
379.4789	10.96351
379.6458	12.06701
379.8127	12.74992
379.9795	13.18154
380.1463	17.05583
380.3131	18.22766
380.48	13.61465
380.6468	14.57775
380.8136	14.21916
380.9804	15.04775
381.1472	12.13757
381.314	13.40624
381.4808	11.33253
381.6476	16.64894
381.8144	10.54187
381.9812	10.52287
382.148	12.79436
382.3147	15.62627
382.4815	14.24146
382.6483	10.5914
382.815	15.50885
382.9818	14.55727
383.1485	19.09367
383.3153	10.01294
383.482	9.037063
383.6487	14.26325
383.8155	14.27893
383.9822	15.31387
384.1489	14.13114
384.3156	15.95367
384.4823	11.47317
384.649	15.42279
384.8157	12.51825
384.9824	13.80746
385.1491	16.2009
385.3158	16.52629
385.4825	16.91353
385.6491	11.65126
385.8158	14.61882
385.9825	16.10016
386.1491	19.95179
386.3157	15.49741
386.4824	11.18263
386.649	8.289664
386.8157	16.25705
386.9823	17.47977
387.1489	16.98043
387.3156	15.47311
387.4821	20.16083
387.6488	16.57403
387.8154	14.56301
387.982	15.10997
388.1486	11.65121
388.3152	16.36456
388.4818	13.99052
388.6483	13.12125
388.8149	20.68067
388.9815	18.18587
389.148	16.85679
389.3146	15.43599
389.4811	17.18534
389.6477	17.66575
389.8142	17.5124
389.9808	15.12646
390.1473	13.3902
390.3138	16.74249
390.4804	18.44127
390.6469	15.09012
390.8134	15.78717
390.9799	15.58303
391.1464	16.54778
391.3129	17.24412
391.4794	16.88672
391.6459	14.92084
391.8124	18.77339
391.9789	20.92964
392.1453	14.6872
392.3118	17.7778
392.4782	17.35558
392.6447	19.18762
392.8112	13.22725
392.9776	14.80732
393.144	13.35751
393.3105	15.39897
393.4769	13.0454
393.6433	12.4311
393.8098	12.60029
393.9762	16.35698
394.1426	16.01374
394.309	17.39942
394.4754	15.32454
394.6418	16.63498
394.8082	16.45025
394.9746	19.89767
395.141	18.9249
395.3073	23.17792
395.4737	22.40361
395.64	15.37906
395.8064	13.99946
395.9728	20.427
396.1391	20.62068
396.3055	17.41074
396.4718	13.93857
396.6381	16.79067
396.8045	19.23414
396.9708	16.50057
397.1371	12.8479
397.3034	12.47297
397.4697	15.22614
397.636	18.92271
397.8023	21.30579
397.9686	20.88264
398.1349	21.51731
398.3012	23.1498
398.4675	20.22569
398.6337	21.90503
398.8	26.67759
398.9662	24.7238
399.1325	24.39266
399.2988	22.68919
399.465	25.893
399.6313	23.72863
399.7975	21.64474
399.9637	24.36061
400.1299	23.99796
400.2961	23.59614
400.4624	22.91621
400.6286	23.89862
400.7948	25.50016
400.961	28.64515
401.1272	23.22732
401.2934	21.36441
401.4595	22.49633
401.6257	26.42124
401.7919	25.88262
401.9581	21.41606
402.1242	24.1158
402.2904	23.55063
402.4565	24.88893
402.6227	26.48982
402.7888	26.19247
402.955	21.45321
403.1211	20.89628
403.2872	22.1619
403.4533	25.56308
403.6194	25.4121
403.7856	31.10298
403.9517	28.59085
404.1177	25.33773
404.2838	27.07131
404.4499	21.52357
404.616	24.45691
404.7821	23.27685
404.9482	24.30417
405.1142	24.9631
405.2803	22.5906
405.4464	22.26302
405.6124	21.39306
405.7784	21.67817
405.9445	26.38399
406.1105	26.39577
406.2766	20.08829
406.4426	25.23864
406.6086	29.03422
406.7746	28.74439
406.9406	27.16292
407.1066	28.12958
407.2726	28.17581
407.4386	28.53637
407.6046	27.40468
407.7706	29.04601
407.9366	23.37843
408.1025	30.7918
408.2685	31.98091
408.4344	36.38175
408.6004	31.23067
408.7664	31.39981
408.9323	32.37394
409.0983	28.85998
409.2642	31.24754
409.4301	32.78032
409.596	30.22338
409.762	27.39314
409.9279	27.78744
410.0938	31.25071
410.2597	28.90104
410.4256	31.2165
410.5915	32.5395
410.7574	27.82351
410.9232	26.52126
411.0891	28.53022
411.255	30.38337
411.4209	30.77905
411.5867	36.60371
411.7526	32.26794
411.9184	35.79751
412.0843	32.20614
412.2501	32.22371
412.4159	34.78377
412.5818	31.44712
412.7476	30.56789
412.9134	31.69792
413.0792	30.41072
413.245	30.62751
413.4108	30.37881
413.5766	32.88079
413.7424	30.12748
413.9082	34.88979
414.074	31.22132
414.2397	36.12988
414.4055	36.94835
414.5713	37.79673
414.737	30.88792
414.9028	33.72848
415.0685	30.40952
415.2343	33.59513
415.4	32.2263
415.5658	31.37177
415.7315	37.8589
415.8972	35.97483
416.0629	31.60413
416.2286	31.85539
416.3943	38.24085
416.56	37.534
416.7257	30.06417
416.8914	35.73215
417.0571	36.45407
417.2228	32.04394
417.3884	36.29303
417.5541	38.74675
417.7198	39.9985
417.8854	37.01754
418.0511	33.77359
418.2167	37.11522
418.3824	33.56123
418.548	33.00534
418.7136	31.30864
418.8792	31.38916
419.0449	37.43666
419.2105	34.5554
419.3761	34.86531
419.5417	33.97575
419.7073	33.51882
419.8729	31.01633
420.0385	32.69193
420.204	38.48731
420.3696	37.09853
420.5352	42.46301
420.7007	39.72515
420.8663	41.13169
421.0319	37.91224
421.1974	36.59362
421.3629	37.72623
421.5285	39.34315
421.694	40.68369
421.8595	44.38326
422.0251	45.50822
422.1906	49.019
422.3561	40.2924
422.5216	38.14854
422.6871	33.84266
422.8526	35.4704
423.0181	39.84708
423.1835	39.99216
423.349	39.61855
423.5145	37.16822
423.68	36.05984
423.8454	42.80216
424.0109	46.63937
424.1763	41.51321
424.3418	46.01477
424.5072	43.00982
424.6726	44.84634
424.838	45.31539
425.0035	43.64137
425.1689	33.86942
425.3343	38.6551
425.4997	44.05496
425.6651	44.85298
425.8305	42.72607
425.9959	39.04667
426.1613	39.88462
426.3267	41.39861
426.492	48.27122
426.6574	47.94735
426.8228	42.26899
426.9881	44.30011
427.1534	42.98517
427.3188	38.73436
427.4841	43.60707
427.6495	42.70647
427.8148	40.75864
427.9801	43.49663
428.1454	50.65968
428.3107	46.08411
428.476	48.63838
428.6414	46.69671
428.8066	44.69858
428.9719	40.57535
429.1372	46.15045
429.3025	45.06334
429.4678	45.38237
429.633	43.82506
429.7983	38.87443
429.9636	37.23223
430.1288	36.24073
430.294	32.961
430.4593	36.21449
430.6245	37.61063
430.7897	35.67917
430.955	32.92391
431.1202	39.38568
431.2854	42.71299
431.4506	47.81835
431.6158	53.87867
431.781	54.34891
431.9462	52.37321
432.1114	45.65979
432.2766	43.23946
432.4417	41.20108
432.6069	46.45236
432.772	45.78611
432.9372	48.00057
433.1024	53.23342
433.2675	51.7743
433.4326	48.73167
433.5977	47.85104
433.7629	47.30108
433.928	42.81076
434.0931	39.29543
434.2582	39.70032
434.4233	50.20165
434.5884	58.2524
434.7535	53.57687
434.9186	53.89917
435.0837	50.26527
435.2488	52.85891
435.4138	49.71283
435.5789	53.3326
435.744	55.55304
435.909	57.78655
436.0741	55.1944
436.2391	51.96062
436.4042	55.29501
436.5692	57.26286
436.7342	59.06926
436.8992	59.27529
437.0643	59.88205
437.2293	59.1515
437.3943	55.30827
437.5593	57.18909
437.7243	57.57264
437.8893	56.81232
438.0542	55.83462
438.2192	53.13669
438.3842	46.95067
438.5491	48.98307
438.7141	58.17939
438.8791	55.1978
439.044	51.36371
439.209	51.94458
439.3739	54.59619
439.5388	59.62528
439.7037	62.64493
439.8687	61.73398
440.0336	59.45328
440.1985	58.13944
440.3634	57.05625
440.5283	57.54559
440.6932	53.47308
440.8581	62.90262
441.0229	59.68842
441.1878	66.72898
441.3527	63.71166
441.5175	55.40487
441.6824	58.86639
441.8472	62.57396
442.0121	65.75829
442.1769	62.51981
442.3418	62.88943
442.5066	61.59327
442.6714	62.85978
442.8362	63.1128
443.001	60.50683
443.1659	63.15498
443.3307	55.0169
443.4955	58.22915
443.6602	64.78126
443.825	67.13503
443.9898	64.04294
444.1546	63.74107
444.3193	62.38413
444.4841	70.29424
444.6488	68.6856
444.8136	72.15534
444.9783	69.05016
445.1431	66.80926
445.3078	67.35129
445.4725	65.60638
445.6372	65.60586
445.802	64.85548
445.9667	64.33434
446.1314	60.5753
446.2961	58.64952
446.4608	68.87453
446.6255	65.73109
446.7901	62.03649
446.9548	69.33314
447.1195	69.11229
447.2841	71.31149
447.4488	69.1939
447.6134	75.79999
447.7781	76.2884
447.9427	66.69852
448.1074	70.30056
448.272	66.84237
448.4366	71.42291
448.6012	72.71576
448.7658	67.96185
448.9305	70.40176
449.095	73.77231
449.2596	70.74138
449.4242	71.8186
449.5888	74.32558
449.7534	73.53928
449.9179	75.79028
450.0825	74.63968
450.2471	77.27908
450.4116	72.43945
450.5762	76.07259
450.7407	75.81132
450.9052	75.8468
451.0698	75.23326
451.2343	79.11266
451.3988	79.26041
451.5633	78.08022
451.7278	79.6619
451.8923	76.03569
452.0568	79.69456
452.2213	75.45483
452.3858	75.08565
452.5503	74.16937
452.7148	72.2953
452.8792	75.28356
453.0437	71.63441
453.2081	75.56615
453.3726	76.35379
453.537	75.88538
453.7015	77.75047
453.8659	80.34155
454.0303	79.26283
454.1947	82.54019
454.3592	82.27876
454.5236	81.52605
454.688	81.02265
454.8524	76.25887
455.0168	79.83459
455.1811	77.12382
455.3455	72.43156
455.5099	82.85184
455.6743	82.60084
455.8386	79.87298
456.003	77.7622
456.1673	80.70153
456.3317	88.46722
456.496	80.38995
456.6603	79.42268
456.8246	88.78487
456.989	86.13058
457.1533	81.22668
457.3176	84.09479
457.4819	78.89395
457.6462	83.94132
457.8105	85.43388
457.9748	81.35648
458.1391	76.76943
458.3033	75.75211
458.4676	80.3691
458.6319	83.41311
458.7961	85.85619
458.9604	86.86707
459.1246	79.96927
459.2888	76.02136
459.4531	83.95004
459.6173	86.86125
459.7815	83.12857
459.9457	85.09118
460.11	83.33892
460.2741	81.11438
460.4384	77.40637
460.6025	84.1058
460.7667	89.95826
460.9309	86.24458
461.0951	83.48917
461.2592	83.0142
461.4234	80.73772
461.5876	80.63146
461.7517	85.54746
461.9159	83.2196
462.08	83.85319
462.2441	79.96262
462.4082	85.6917
462.5724	84.74291
462.7365	88.52438
462.9006	90.0499
463.0647	90.78228
463.2288	85.10928
463.3929	87.51685
463.557	82.2395
463.721	81.36512
463.8851	86.18848
464.0492	83.69133
464.2132	82.34058
464.3773	77.80923
464.5414	78.81889
464.7054	77.16792
464.8694	80.51048
465.0334	82.90658
465.1975	89.99107
465.3615	87.79109
465.5255	79.51417
465.6895	79.37426
465.8535	85.44334
466.0175	84.33673
466.1815	86.08932
466.3455	82.9678
466.5095	81.02522
466.6734	79.07134
466.8374	79.85774
467.0014	82.0462
467.1653	80.46299
467.3293	86.97424
467.4932	87.0735
467.6571	87.58308
467.8211	84.88949
467.985	80.1216
468.1489	78.07585
468.3128	79.83061
468.4767	88.30511
468.6406	87.95165
468.8045	89.18777
468.9684	83.77795
469.1323	86.32924
469.2962	90.04367
469.46	89.12598
469.6239	86.74149
469.7878	84.36337
469.9516	83.84451
470.1154	84.26721
470.2793	81.57431
470.4431	84.51577
470.607	83.03807
470.7708	81.96927
470.9346	84.59715
471.0984	80.42053
471.2622	86.01109
471.426	87.78744
471.5898	87.24729
471.7536	94.47375
471.9174	95.20229
472.0811	97.37041
472.2449	93.77819
472.4087	92.33652
472.5724	88.57885
472.7362	88.0079
472.8999	85.31409
473.0637	89.33102
473.2274	89.17395
473.3911	85.02969
473.5548	87.38014
473.7185	88.12009
473.8822	87.18771
474.0459	87.90134
474.2096	88.66499
474.3733	87.81335
474.537	90.32932
474.7007	93.4245
474.8643	92.02534
475.028	89.80023
475.1917	92.77377
475.3553	88.06558
475.519	83.00433
475.6826	87.82115
475.8463	93.71582
476.0099	95.72498
476.1735	93.00053
476.3371	90.05127
476.5007	84.27403
476.6643	85.61954
476.8279	88.62657
476.9915	88.39303
477.1551	96.64343
477.3187	87.22123
477.4823	90.65792
477.6458	94.42984
477.8094	88.96673
477.9729	93.00493
478.1365	88.95995
478.3	89.72154
478.4636	91.70615
478.6271	89.88576
478.7906	91.43761
478.9541	93.89552
479.1176	90.16975
479.2812	93.04579
479.4447	96.48544
479.6082	98.84644
479.7716	95.59575
479.9351	92.29124
480.0986	91.24432
480.2621	89.87068
480.4255	92.92211
480.589	93.18918
480.7524	91.19904
480.9159	88.81055
481.0793	93.84655
481.2428	94.26965
481.4062	94.24681
481.5696	94.56011
481.733	92.66749
481.8964	91.40653
482.0598	93.89764
482.2232	93.57073
482.3866	92.15853
482.55	96.90362
482.7134	88.28425
482.8768	91.58937
483.0401	88.19849
483.2035	86.48564
483.3668	86.76564
483.5302	90.08287
483.6935	88.61762
483.8568	89.82849
484.0202	87.43795
484.1835	92.43437
484.3468	93.32304
484.5101	92.86608
484.6734	99.04533
484.8367	93.97504
485	91.59223
485.1633	91.17579
485.3266	88.17994
485.4899	88.24127
485.6531	85.29514
485.8164	81.48892
485.9796	78.86711
486.1429	68.48416
486.3061	68.31536
486.4694	77.32656
486.6326	82.86169
486.7958	87.398
486.959	87.2739
487.1223	86.56197
487.2855	78.29585
487.4486	85.94087
487.6118	89.0484
487.775	89.29005
487.9382	88.77091
488.1014	92.91531
488.2646	96.46839
488.4277	81.60734
488.5909	90.2705
488.754	90.68951
488.9171	91.69875
489.0803	87.11285
489.2434	89.50181
489.4066	92.34808
489.5697	100.9922
489.7328	99.81118
489.8959	95.55029
490.059	95.66722
490.2221	95.2868
490.3852	94.79796
490.5482	95.02122
490.7113	94.93692
490.8744	96.62279
491.0374	91.52666
491.2005	94.31289
491.3636	96.51775
491.5266	102.2079
491.6896	97.41673
491.8527	89.96936
492.0157	90.33749
492.1787	91.68948
492.3417	94.44822
492.5047	94.84058
492.6677	100.0749
492.8307	100.4882
492.9937	98.53212
493.1567	102.5084
493.3196	96.39631
493.4826	93.83446
493.6456	99.58561
493.8085	89.45979
493.9715	96.08799
494.1344	95.2046
494.2974	103.551
494.4603	100.721
494.6232	97.01764
494.7861	104.4306
494.949	98.21468
495.1119	100.0811
495.2748	101.1148
495.4377	106.2417
495.6006	98.38771
495.7635	94.99095
495.9264	94.76563
496.0892	99.04078
496.2521	98.91389
496.4149	100.7009
496.5778	99.82895
496.7407	99.01925
496.9035	99.15907
497.0663	94.92712
497.2291	99.06727
497.3919	97.57364
497.5547	104.8239
497.7176	110.5771
497.8804	105.1388
498.0432	96.77977
498.2059	97.06938
498.3687	92.80925
498.5315	92.26606
498.6942	96.96883
498.857	101.7568
499.0198	109.3794
499.1825	106.5863
499.3452	99.94652
499.508	97.50043
499.6707	104.0964
499.8334	99.89375
499.9962	102.3584
500.1589	95.96722
500.3216	105.0652
500.4843	99.32739
500.6469	104.3914
500.8096	96.76692
500.9723	105.2713
501.135	109.6278
501.2976	101.8775
501.4603	96.54146
501.623	98.01509
501.7856	103.136
501.9482	106.1318
502.1109	104.7004
502.2735	107.7442
502.4361	103.4467
502.5987	105.1482
502.7614	100.0785
502.924	106.8537
503.0865	109.0535
503.2491	108.0112
503.4117	109.9115
503.5743	116.9541
503.7368	106.092
503.8994	105.4718
504.062	101.6419
504.2245	104.7437
504.3871	106.4359
504.5496	110.0347
504.7121	110.9004
504.8746	109.5951
505.0372	109.0145
505.1997	114.3043
505.3622	112.2093
505.5247	115.8457
505.6872	117.6423
505.8497	114.9106
506.0121	121.2087
506.1746	122.5236
506.3371	120.5538
506.4995	117.3464
506.662	117.8876
506.8244	114.2051
506.9869	116.8145
507.1493	116.3091
507.3117	113.039
507.4742	119.418
507.6366	122.2819
507.799	114.7943
507.9614	113.917
508.1238	118.0088
508.2862	114.8737
508.4485	118.9069
508.6109	127.8225
508.7733	128.7049
508.9357	123.6108
509.098	125.262
509.2604	125.1032
509.4227	123.9161
509.5851	126.8002
509.7474	130.8419
509.9097	122.6005
510.072	124.9977
510.2343	132.298
510.3966	136.6684
510.5589	128.498
510.7212	130.4966
510.8835	122.3817
511.0458	125.6922
511.2081	133.4964
511.3703	142.8314
511.5326	146.5556
511.6949	142.2992
511.8571	134.7889
512.0193	133.3822
512.1816	138.4926
512.3438	138.4449
512.506	134.3759
512.6682	136.7991
512.8304	137.2526
512.9926	136.5871
513.1548	134.447
513.317	135.1814
513.4792	134.4453
513.6414	138.375
513.8035	129.1099
513.9657	133.059
514.1279	133.9866
514.29	126.8338
514.4521	134.2374
514.6143	139.0452
514.7764	139.3968
514.9385	142.3213
515.1006	141.6857
515.2628	143.7475
515.4249	142.5106
515.587	142.9852
515.7491	151.0087
515.9111	150.4088
516.0732	141.6757
516.2353	150.364
