SPECTRUM DATA FILE
SpectrumCount:	1
PixelCount:	3648
UserName:	ToughBook User
SampleName:	
LightSource:	
Comments:	
DeviceName:	Qwave
DeviceManufacturer:	Broadcom
DeviceSerialNo:	11311

Name:	last spectrum
Date:	2024-05-02T14:41:52.6235451+02:00
ExposureTime:	0.02
TemporalAvg:	1
IntensityUnit:	normalizedCounts
CCDLoadLevel:	0.05212023
Temperature:	31.05875
DiagramColor:	200
ProcessingSteps:	335

Wavelength [nm]	Intensity1
334.421	9.814626
334.5891	6.849305
334.7573	5.542524
334.9254	7.805235
335.0935	7.443027
335.2616	5.338791
335.4297	3.766965
335.5978	4.968744
335.7659	6.478347
335.934	9.212523
336.1021	4.749283
336.2701	5.862341
336.4382	5.587174
336.6063	5.29968
336.7744	4.080231
336.9424	0.3692263
337.1105	9.032408
337.2785	10.49683
337.4466	4.895586
337.6146	2.407858
337.7827	9.896061
337.9507	10.39758
338.1187	7.042741
338.2867	3.019877
338.4548	6.318746
338.6228	7.849891
338.7908	5.277365
338.9588	4.208991
339.1268	8.752296
339.2948	8.683887
339.4628	6.539856
339.6308	7.74506
339.7988	6.559832
339.9667	5.100017
340.1347	7.865176
340.3027	7.068875
340.4707	3.692009
340.6386	5.62453
340.8066	5.625478
340.9745	8.170991
341.1425	9.294668
341.3104	7.358407
341.4784	9.484922
341.6463	5.43888
341.8142	7.109797
341.9821	6.884487
342.1501	5.251649
342.318	8.480078
342.4859	8.029864
342.6538	5.702434
342.8217	4.137557
342.9896	6.170716
343.1575	3.952307
343.3254	0.4434225
343.4933	3.874093
343.6612	7.115639
343.829	10.27796
343.9969	8.441763
344.1648	10.26435
344.3326	10.60385
344.5005	8.634685
344.6683	11.47165
344.8362	8.934979
345.004	10.20559
345.1719	8.212552
345.3397	9.556146
345.5075	6.242771
345.6754	5.943972
345.8432	8.399657
346.011	2.725667
346.1788	3.653652
346.3466	8.499443
346.5144	6.35709
346.6822	5.424766
346.85	6.75779
347.0178	2.863642
347.1856	5.483176
347.3534	9.701963
347.5211	5.010541
347.6889	3.991135
347.8567	4.97583
348.0244	5.666519
348.1922	6.990165
348.3599	6.426496
348.5277	5.589597
348.6954	5.299908
348.8632	3.996376
349.0309	1.518549
349.1986	3.258111
349.3663	4.341061
349.5341	7.797258
349.7018	3.515033
349.8695	5.669959
350.0372	12.42346
350.2049	4.457576
350.3726	5.108485
350.5403	6.288008
350.7079	7.467252
350.8756	3.692389
351.0433	2.112191
351.211	8.408842
351.3786	6.703375
351.5463	5.495726
351.714	6.271102
351.8816	7.008508
352.0493	8.200096
352.2169	9.65938
352.3846	7.55851
352.5522	9.685043
352.7198	5.628958
352.8875	7.774129
353.0551	8.405901
353.2227	6.143467
353.3903	8.887127
353.5579	8.250182
353.7255	9.171005
353.8931	7.506434
354.0607	9.458262
354.2283	8.909275
354.3958	10.48553
354.5634	9.268675
354.731	10.67874
354.8986	7.320909
355.0661	8.907171
355.2337	6.766418
355.4012	7.416229
355.5688	11.27015
355.7363	10.98026
355.9039	9.481898
356.0714	8.206368
356.239	8.716605
356.4065	7.917943
356.574	10.5336
356.7415	6.821885
356.909	4.982114
357.0765	5.196384
357.244	9.996303
357.4115	6.895311
357.579	8.522051
357.7465	4.576891
357.914	4.558231
358.0815	5.344205
358.249	2.49971
358.4164	5.141526
358.5839	8.624402
358.7513	6.288067
358.9188	8.270563
359.0862	6.119272
359.2537	2.624687
359.4211	6.683764
359.5886	3.425985
359.756	7.107638
359.9234	8.793629
360.0909	8.517244
360.2583	7.791553
360.4257	7.574626
360.5931	7.776901
360.7605	7.949203
360.9279	5.766079
361.0953	8.499938
361.2627	4.754841
361.4301	8.040395
361.5974	7.891867
361.7648	5.503961
361.9322	5.964489
362.0995	7.14114
362.2669	8.535959
362.4343	9.290724
362.6016	5.620488
362.769	10.46281
362.9363	10.10487
363.1036	8.397852
363.271	5.717659
363.4383	8.649307
363.6056	8.279536
363.7729	2.641886
363.9402	6.894193
364.1075	4.144184
364.2748	5.964551
364.4421	4.341712
364.6094	5.228762
364.7767	11.26254
364.944	3.081094
365.1113	8.804472
365.2786	9.658967
365.4458	9.604334
365.6131	11.46586
365.7803	9.49652
365.9476	5.877482
366.1148	9.079024
366.2821	9.880262
366.4493	7.729079
366.6166	7.282959
366.7838	7.641539
366.951	11.56989
367.1182	14.52231
367.2855	9.270448
367.4527	9.698066
367.6199	6.126449
367.7871	4.903855
367.9543	7.380138
368.1215	9.733644
368.2886	10.6032
368.4558	6.965937
368.623	7.027973
368.7902	8.76736
368.9573	11.58535
369.1245	7.187946
369.2917	12.35459
369.4588	9.466448
369.6259	9.70958
369.7931	12.6993
369.9602	11.42717
370.1274	12.43727
370.2945	12.0668
370.4616	7.985792
370.6287	8.111209
370.7958	5.51894
370.963	8.601259
371.1301	7.515
371.2971	7.294447
371.4643	11.29845
371.6313	8.681514
371.7984	10.04279
371.9655	10.56225
372.1326	8.555266
372.2997	2.72075
372.4667	7.807967
372.6338	10.52119
372.8008	12.69014
372.9679	9.217958
373.1349	8.541287
373.3019	6.521108
373.469	8.973195
373.636	5.801466
373.803	10.02409
373.9701	9.36377
374.1371	8.378987
374.3041	11.6835
374.4711	16.57885
374.6381	12.82059
374.8051	5.708172
374.9721	10.37636
375.1391	11.85481
375.3061	13.56524
375.473	12.23925
375.64	9.935038
375.8069	7.079781
375.9739	9.708437
376.1409	9.344234
376.3078	10.04754
376.4748	9.102674
376.6417	11.09672
376.8087	4.085976
376.9756	8.345347
377.1425	12.47065
377.3094	8.675985
377.4763	12.61903
377.6432	9.070629
377.8102	8.467396
377.9771	10.42389
378.144	10.42774
378.3109	10.91644
378.4777	11.75049
378.6446	10.38679
378.8115	10.70254
378.9784	7.481837
379.1452	6.651165
379.3121	8.024483
379.4789	12.00934
379.6458	6.42481
379.8127	9.312712
379.9795	10.66739
380.1463	8.631794
380.3131	8.204865
380.48	9.830717
380.6468	8.63763
380.8136	8.991657
380.9804	6.098915
381.1472	8.523736
381.314	12.07379
381.4808	13.73006
381.6476	13.93755
381.8144	14.08404
381.9812	12.40685
382.148	7.40397
382.3147	10.45878
382.4815	8.310101
382.6483	5.858407
382.815	7.705292
382.9818	7.985706
383.1485	8.295528
383.3153	8.180748
383.482	10.13431
383.6487	9.469046
383.8155	8.574981
383.9822	10.99184
384.1489	13.07122
384.3156	12.77795
384.4823	13.92166
384.649	11.49999
384.8157	11.22563
384.9824	15.24971
385.1491	15.80544
385.3158	12.57642
385.4825	12.72735
385.6491	9.751871
385.8158	16.68673
385.9825	10.57661
386.1491	8.12076
386.3157	9.541389
386.4824	8.225689
386.649	8.604771
386.8157	15.57004
386.9823	12.95607
387.1489	11.86972
387.3156	11.93301
387.4821	14.43282
387.6488	9.192293
387.8154	15.87529
387.982	15.74463
388.1486	8.388437
388.3152	9.50001
388.4818	14.30701
388.6483	12.32967
388.8149	10.98897
388.9815	10.69412
389.148	8.10063
389.3146	15.07964
389.4811	14.82385
389.6477	9.446556
389.8142	8.432092
389.9808	12.14104
390.1473	18.0919
390.3138	11.26815
390.4804	8.53771
390.6469	13.47461
390.8134	11.10119
390.9799	14.53377
391.1464	13.54311
391.3129	13.21512
391.4794	10.96553
391.6459	8.558193
391.8124	14.47981
391.9789	11.00451
392.1453	5.69491
392.3118	12.93193
392.4782	12.31059
392.6447	8.174943
392.8112	12.20012
392.9776	10.96505
393.144	6.525649
393.3105	8.586568
393.4769	14.87323
393.6433	16.28301
393.8098	13.01305
393.9762	11.34727
394.1426	10.77816
394.309	16.72765
394.4754	15.44499
394.6418	13.40812
394.8082	14.98783
394.9746	11.71898
395.141	17.65144
395.3073	8.728415
395.4737	14.84906
395.64	13.67856
395.8064	15.65048
395.9728	16.87501
396.1391	15.92301
396.3055	8.471745
396.4718	9.642983
396.6381	15.26926
396.8045	11.86629
396.9708	9.647104
397.1371	10.46751
397.3034	10.52153
397.4697	14.42118
397.636	14.7978
397.8023	15.68105
397.9686	16.01733
398.1349	18.74023
398.3012	11.81792
398.4675	13.06712
398.6337	19.44726
398.8	19.75614
398.9662	24.22881
399.1325	18.64629
399.2988	18.56001
399.465	18.82979
399.6313	16.08462
399.7975	13.90991
399.9637	15.92481
400.1299	21.55587
400.2961	16.50585
400.4624	22.85634
400.6286	18.90567
400.7948	22.1979
400.961	22.20009
401.1272	16.70984
401.2934	19.71449
401.4595	18.20155
401.6257	17.90466
401.7919	17.7137
401.9581	21.93503
402.1242	20.18808
402.2904	23.30021
402.4565	20.32701
402.6227	21.09807
402.7888	18.81941
402.955	15.62738
403.1211	17.55535
403.2872	20.51183
403.4533	22.54024
403.6194	16.18877
403.7856	16.06968
403.9517	20.05323
404.1177	18.74462
404.2838	22.41178
404.4499	16.05781
404.616	15.24609
404.7821	16.34138
404.9482	23.06077
405.1142	19.47184
405.2803	18.86258
405.4464	20.42898
405.6124	16.13935
405.7784	16.50944
405.9445	20.67051
406.1105	17.49426
406.2766	15.05971
406.4426	14.68012
406.6086	19.64137
406.7746	24.12137
406.9406	20.81823
407.1066	16.78096
407.2726	23.11271
407.4386	26.03972
407.6046	23.71445
407.7706	21.83074
407.9366	21.25451
408.1025	27.14227
408.2685	23.35777
408.4344	23.78623
408.6004	22.58874
408.7664	26.68424
408.9323	21.43216
409.0983	23.17142
409.2642	21.42442
409.4301	18.58964
409.596	19.39511
409.762	23.79937
409.9279	23.45634
410.0938	20.04063
410.2597	22.44876
410.4256	25.05923
410.5915	27.12914
410.7574	25.00288
410.9232	27.37584
411.0891	20.15312
411.255	24.84129
411.4209	22.61668
411.5867	22.32818
411.7526	28.09701
411.9184	23.64075
412.0843	26.24322
412.2501	24.67551
412.4159	24.0305
412.5818	19.53398
412.7476	21.82812
412.9134	22.34919
413.0792	22.22116
413.245	29.50554
413.4108	30.08216
413.5766	24.33831
413.7424	22.21641
413.9082	25.19094
414.074	27.28628
414.2397	24.75997
414.4055	26.83738
414.5713	27.22849
414.737	25.38914
414.9028	24.63498
415.0685	26.85964
415.2343	23.30267
415.4	26.81493
415.5658	30.33999
415.7315	25.55223
415.8972	25.84806
416.0629	30.19176
416.2286	26.04146
416.3943	24.43545
416.56	26.90215
416.7257	26.93885
416.8914	25.95706
417.0571	25.31102
417.2228	26.3723
417.3884	24.38625
417.5541	24.10208
417.7198	25.67855
417.8854	26.3328
418.0511	25.87071
418.2167	28.30134
418.3824	26.66761
418.548	27.52641
418.7136	29.23561
418.8792	29.03195
419.0449	31.40314
419.2105	33.75241
419.3761	31.85847
419.5417	31.26128
419.7073	31.13323
419.8729	28.59578
420.0385	27.2215
420.204	23.39806
420.3696	28.53252
420.5352	32.80293
420.7007	31.16075
420.8663	29.9143
421.0319	31.38734
421.1974	31.14371
421.3629	29.32898
421.5285	29.25494
421.694	28.51069
421.8595	34.31273
422.0251	33.92233
422.1906	29.36124
422.3561	29.67774
422.5216	31.96713
422.6871	28.11281
422.8526	27.85351
423.0181	33.37851
423.1835	37.01032
423.349	32.28779
423.5145	33.05823
423.68	29.82052
423.8454	32.49311
424.0109	33.91801
424.1763	32.47695
424.3418	33.15973
424.5072	35.66642
424.6726	34.30402
424.838	30.70151
425.0035	35.18443
425.1689	36.18615
425.3343	34.44244
425.4997	27.20505
425.6651	34.04183
425.8305	35.43621
425.9959	35.88404
426.1613	32.27422
426.3267	35.24157
426.492	35.17002
426.6574	35.49187
426.8228	31.25505
426.9881	28.45852
427.1534	27.79379
427.3188	29.10129
427.4841	34.10837
427.6495	33.51919
427.8148	37.00542
427.9801	37.49469
428.1454	37.50284
428.3107	40.23257
428.476	34.23675
428.6414	32.93167
428.8066	36.18885
428.9719	32.2208
429.1372	35.32749
429.3025	33.96108
429.4678	37.47548
429.633	35.19254
429.7983	32.22171
429.9636	26.8882
430.1288	28.84501
430.294	29.12117
430.4593	29.59082
430.6245	28.85042
430.7897	26.65506
430.955	30.67047
431.1202	30.35094
431.2854	29.33225
431.4506	35.13388
431.6158	36.79144
431.781	38.46285
431.9462	39.81894
432.1114	39.13461
432.2766	32.13791
432.4417	33.1811
432.6069	34.4554
432.772	35.44097
432.9372	39.70649
433.1024	39.28027
433.2675	38.23544
433.4326	40.55593
433.5977	40.14266
433.7629	33.7573
433.928	36.89796
434.0931	32.53036
434.2582	31.88033
434.4233	40.66897
434.5884	41.76428
434.7535	39.08125
434.9186	40.72241
435.0837	40.42292
435.2488	40.12236
435.4138	37.21754
435.5789	45.59204
435.744	43.74035
435.909	36.44399
436.0741	41.93588
436.2391	42.31856
436.4042	44.7472
436.5692	43.40775
436.7342	42.69166
436.8992	44.64554
437.0643	45.09964
437.2293	45.15253
437.3943	44.57732
437.5593	44.52456
437.7243	39.72599
437.8893	43.03344
438.0542	45.29955
438.2192	38.28464
438.3842	39.49969
438.5491	38.98253
438.7141	40.33083
438.8791	41.84909
439.044	45.92896
439.209	39.27192
439.3739	42.82285
439.5388	47.9108
439.7037	46.7898
439.8687	48.68298
440.0336	49.99805
440.1985	44.64083
440.3634	44.9889
440.5283	42.49276
440.6932	40.96416
440.8581	49.82399
441.0229	51.17287
441.1878	46.58791
441.3527	50.4242
441.5175	52.23327
441.6824	47.69014
441.8472	49.86107
442.0121	50.18332
442.1769	51.00759
442.3418	50.06622
442.5066	48.5989
442.6714	48.96495
442.8362	46.18486
443.001	48.77597
443.1659	51.17101
443.3307	50.64846
443.4955	53.70506
443.6602	53.58999
443.825	51.58506
443.9898	55.24212
444.1546	52.67511
444.3193	48.13542
444.4841	49.9492
444.6488	50.49339
444.8136	50.85806
444.9783	52.7836
445.1431	51.74958
445.3078	47.35883
445.4725	50.86782
445.6372	47.23512
445.802	45.53301
445.9667	50.45894
446.1314	51.12563
446.2961	46.57981
446.4608	51.13908
446.6255	49.48866
446.7901	50.86138
446.9548	51.85809
447.1195	48.98593
447.2841	56.2673
447.4488	55.99672
447.6134	56.78809
447.7781	60.09887
447.9427	55.72284
448.1074	52.80782
448.272	54.80847
448.4366	56.55738
448.6012	54.4465
448.7658	57.16012
448.9305	55.68729
449.095	55.28878
449.2596	55.74133
449.4242	55.32719
449.5888	56.2895
449.7534	54.21252
449.9179	54.58319
450.0825	56.71579
450.2471	52.50612
450.4116	56.29412
450.5762	56.98324
450.7407	58.81011
450.9052	63.07399
451.0698	57.90351
451.2343	59.93992
451.3988	57.84529
451.5633	55.84739
451.7278	61.15862
451.8923	67.32836
452.0568	59.2569
452.2213	61.22684
452.3858	59.74495
452.5503	57.62778
452.7148	54.86923
452.8792	53.51012
453.0437	52.50444
453.2081	52.63914
453.3726	59.3251
453.537	54.94202
453.7015	57.90794
453.8659	60.23957
454.0303	60.77474
454.1947	64.58678
454.3592	64.25135
454.5236	64.74302
454.688	61.84953
454.8524	62.41102
455.0168	67.7607
455.1811	65.45871
455.3455	62.96288
455.5099	63.38266
455.6743	60.79112
455.8386	56.19135
456.003	59.92228
456.1673	66.58832
456.3317	63.49807
456.496	60.14125
456.6603	63.87511
456.8246	63.26585
456.989	65.94601
457.1533	64.8161
457.3176	59.32339
457.4819	70.13984
457.6462	67.39381
457.8105	61.42321
457.9748	65.01836
458.1391	67.24545
458.3033	63.40785
458.4676	62.86994
458.6319	65.18781
458.7961	68.47888
458.9604	65.35121
459.1246	67.80704
459.2888	62.86252
459.4531	61.98713
459.6173	64.40928
459.7815	63.22844
459.9457	63.60321
460.11	61.06744
460.2741	61.84679
460.4384	61.77888
460.6025	60.58554
460.7667	63.35402
460.9309	65.41092
461.0951	70.36323
461.2592	70.46476
461.4234	63.61717
461.5876	61.97402
461.7517	60.04877
461.9159	67.02335
462.08	70.23145
462.2441	67.78244
462.4082	65.7668
462.5724	63.82721
462.7365	68.17455
462.9006	59.91254
463.0647	63.76487
463.2288	67.56796
463.3929	64.23461
463.557	63.74106
463.721	62.65218
463.8851	63.43146
464.0492	65.83839
464.2132	71.09365
464.3773	66.39056
464.5414	60.15257
464.7054	63.8172
464.8694	60.57518
465.0334	61.1139
465.1975	67.899
465.3615	70.69096
465.5255	63.02273
465.6895	65.88766
465.8535	66.63335
466.0175	71.2304
466.1815	71.52559
466.3455	68.10001
466.5095	66.91056
466.6734	61.56286
466.8374	65.30666
467.0014	64.51713
467.1653	65.90915
467.3293	67.56607
467.4932	70.14598
467.6571	69.42823
467.8211	71.48041
467.985	71.27165
468.1489	71.14979
468.3128	68.40749
468.4767	68.85044
468.6406	73.71172
468.8045	70.64764
468.9684	70.17091
469.1323	70.22404
469.2962	71.21732
469.46	71.68484
469.6239	74.4316
469.7878	66.3101
469.9516	72.99525
470.1154	68.1879
470.2793	62.53833
470.4431	66.48805
470.607	64.06252
470.7708	68.60768
470.9346	71.36633
471.0984	70.34655
471.2622	69.58015
471.426	72.21396
471.5898	74.11375
471.7536	69.59092
471.9174	71.96693
472.0811	68.87354
472.2449	66.74269
472.4087	69.17654
472.5724	70.48457
472.7362	70.47626
472.8999	68.75663
473.0637	67.52599
473.2274	70.1582
473.3911	73.2219
473.5548	69.22038
473.7185	69.237
473.8822	74.75689
474.0459	74.64968
474.2096	69.99551
474.3733	79.41997
474.537	78.57449
474.7007	81.36232
474.8643	76.86205
475.028	73.63554
475.1917	70.60936
475.3553	67.12728
475.519	71.85109
475.6826	71.26369
475.8463	75.58095
476.0099	78.11263
476.1735	72.59792
476.3371	72.94767
476.5007	77.37915
476.6643	68.13909
476.8279	70.85607
476.9915	74.28162
477.1551	72.90475
477.3187	80.35833
477.4823	78.24042
477.6458	74.75719
477.8094	71.23585
477.9729	75.39465
478.1365	74.2029
478.3	68.16317
478.4636	69.54953
478.6271	73.78776
478.7906	76.48515
478.9541	76.17623
479.1176	68.98887
479.2812	73.79618
479.4447	75.60365
479.6082	83.15161
479.7716	76.25578
479.9351	72.23227
480.0986	67.96682
480.2621	73.88372
480.4255	75.9875
480.589	72.89245
480.7524	72.42241
480.9159	71.75021
481.0793	71.10401
481.2428	75.53549
481.4062	75.33846
481.5696	77.56663
481.733	82.53178
481.8964	77.05417
482.0598	72.81374
482.2232	74.05676
482.3866	71.32587
482.55	72.07803
482.7134	76.59445
482.8768	72.34991
483.0401	75.20061
483.2035	77.61458
483.3668	77.32574
483.5302	77.3197
483.6935	76.65347
483.8568	77.20188
484.0202	75.38696
484.1835	75.73333
484.3468	69.8166
484.5101	70.27368
484.6734	72.75751
484.8367	77.3122
485	74.66611
485.1633	78.11846
485.3266	68.73438
485.4899	66.39433
485.6531	73.41097
485.8164	67.39076
485.9796	65.59112
486.1429	56.1259
486.3061	60.20286
486.4694	65.33335
486.6326	68.89839
486.7958	72.83539
486.959	71.91077
487.1223	70.56545
487.2855	68.03214
487.4486	72.23217
487.6118	77.57187
487.775	77.21941
487.9382	83.88621
488.1014	77.39671
488.2646	68.90419
488.4277	74.42696
488.5909	71.95544
488.754	72.86465
488.9171	66.64606
489.0803	68.50826
489.2434	73.64931
489.4066	81.04895
489.5697	79.89908
489.7328	83.31837
489.8959	80.35275
490.059	75.59823
490.2221	78.05807
490.3852	78.96906
490.5482	78.25745
490.7113	77.54116
490.8744	77.18568
491.0374	74.21693
491.2005	78.89992
491.3636	81.62151
491.5266	83.78385
491.6896	81.33834
491.8527	71.52101
492.0157	69.91158
492.1787	73.82776
492.3417	76.2877
492.5047	76.76025
492.6677	80.49371
492.8307	80.68797
492.9937	82.84927
493.1567	81.50317
493.3196	80.90551
493.4826	75.71926
493.6456	76.10826
493.8085	71.93393
493.9715	75.53501
494.1344	80.08406
494.2974	82.57901
494.4603	80.90016
494.6232	78.72865
494.7861	87.51691
494.949	87.41486
495.1119	83.81288
495.2748	78.63915
495.4377	82.3793
495.6006	83.46066
495.7635	80.92948
495.9264	81.55601
496.0892	83.5035
496.2521	85.92691
496.4149	83.30498
496.5778	80.54986
496.7407	80.4642
496.9035	84.53259
497.0663	80.44925
497.2291	85.00943
497.3919	87.12511
497.5547	87.84791
497.7176	81.52338
497.8804	80.4772
498.0432	82.77686
498.2059	84.97158
498.3687	82.22872
498.5315	85.24802
498.6942	84.56501
498.857	85.36422
499.0198	88.04667
499.1825	89.29184
499.3452	89.13099
499.508	89.03789
499.6707	89.72453
499.8334	89.69274
499.9962	87.58614
500.1589	85.24964
500.3216	88.53278
500.4843	83.96638
500.6469	85.14513
500.8096	85.56931
500.9723	85.24057
501.135	90.25263
501.2976	85.28298
501.4603	89.9444
501.623	80.82281
501.7856	82.51765
501.9482	90.54871
502.1109	91.57079
502.2735	88.03359
502.4361	93.26869
502.5987	87.47582
502.7614	84.37267
502.924	87.7941
503.0865	95.4173
503.2491	92.45912
503.4117	92.22342
503.5743	90.32034
503.7368	87.39347
503.8994	85.54922
504.062	89.83581
504.2245	89.94903
504.3871	86.68258
504.5496	102.1263
504.7121	96.99337
504.8746	93.03896
505.0372	92.25972
505.1997	96.6984
505.3622	94.13729
505.5247	96.78905
505.6872	103.3453
505.8497	102.4821
506.0121	102.49
506.1746	104.086
506.3371	101.4136
506.4995	106.4952
506.662	101.0237
506.8244	99.18179
506.9869	99.40525
507.1493	98.95151
507.3117	99.84955
507.4742	107.5718
507.6366	105.6667
507.799	98.44224
507.9614	98.26911
508.1238	96.69762
508.2862	98.67962
508.4485	100.9233
508.6109	102.5371
508.7733	105.3347
508.9357	114.4025
509.098	113.3338
509.2604	105.8274
509.4227	109.2768
509.5851	110.071
509.7474	110.0901
509.9097	106.6798
510.072	106.8189
510.2343	105.7152
510.3966	114.9483
510.5589	108.8275
510.7212	111.4157
510.8835	113.4354
511.0458	115.7821
511.2081	114.2439
511.3703	116.66
511.5326	118.6256
511.6949	117.9673
511.8571	115.7062
512.0193	116.7814
512.1816	114.8833
512.3438	118.5942
512.506	115.3838
512.6682	114.3392
512.8304	110.8711
512.9926	113.425
513.1548	119.0862
513.317	120.841
513.4792	117.5155
513.6414	122.0515
513.8035	118.4398
513.9657	111.6048
514.1279	108.125
514.29	120.8081
514.4521	124.9068
514.6143	124.0864
514.7764	121.1388
514.9385	121.9647
515.1006	128.0325
515.2628	123.6106
515.4249	123.5133
515.587	129.766
515.7491	132.76
515.9111	136.496
516.0732	125.6313
