SPECTRUM DATA FILE
SpectrumCount:	1
PixelCount:	3648
UserName:	ToughBook User
SampleName:	
LightSource:	
Comments:	
DeviceName:	Qwave
DeviceManufacturer:	Broadcom
DeviceSerialNo:	11311

Name:	last spectrum
Date:	2024-05-02T14:41:03.5061486+02:00
ExposureTime:	0.02
TemporalAvg:	1
IntensityUnit:	normalizedCounts
CCDLoadLevel:	0.919889
Temperature:	30.95038
DiagramColor:	200
ProcessingSteps:	335

Wavelength [nm]	Intensity1
334.421	171.7345
334.5891	167.2978
334.7573	166.1225
334.9254	167.3976
335.0935	174.7014
335.2616	175.3969
335.4297	178.0592
335.5978	171.2087
335.7659	157.9926
335.934	142.8135
336.1021	141.0732
336.2701	145.225
336.4382	144.3037
336.6063	154.6644
336.7744	152.4783
336.9424	142.6746
337.1105	136.9611
337.2785	142.7733
337.4466	159.3537
337.6146	170.4604
337.7827	167.5676
337.9507	167.733
338.1187	165.8596
338.2867	174.8272
338.4548	169.9695
338.6228	180.9763
338.7908	185.1462
338.9588	174.6922
339.1268	171.5083
339.2948	176.3331
339.4628	170.7841
339.6308	185.4666
339.7988	206.1003
339.9667	210.4958
340.1347	210.645
340.3027	209.2426
340.4707	195.5473
340.6386	189.8969
340.8066	189.8016
340.9745	191.743
341.1425	187.7805
341.3104	186.5754
341.4784	188.8317
341.6463	196.7336
341.8142	200.1748
341.9821	217.6243
342.1501	218.478
342.318	206.2138
342.4859	198.6792
342.6538	215.8639
342.8217	222.2242
342.9896	221.2805
343.1575	227.83
343.3254	221.6622
343.4933	207.7321
343.6612	201.143
343.829	190.4996
343.9969	173.4818
344.1648	156.7812
344.3326	155.4041
344.5005	168.1134
344.6683	195.9749
344.8362	214.2053
345.004	227.1152
345.1719	224.1815
345.3397	222.622
345.5075	223.419
345.6754	213.8921
345.8432	207.8947
346.011	205.5203
346.1788	202.2514
346.3466	211.7553
346.5144	218.5032
346.6822	225.5196
346.85	227.2002
347.0178	228.6025
347.1856	223.2755
347.3534	211.2862
347.5211	197.8859
347.6889	201.9896
347.8567	208.4786
348.0244	215.8496
348.1922	229.2683
348.3599	228.1951
348.5277	220.9451
348.6954	219.4594
348.8632	221.9486
349.0309	214.0038
349.1986	202.1795
349.3663	211.4628
349.5341	221.936
349.7018	236.0197
349.8695	247.9681
350.0372	263.8405
350.2049	279.4837
350.3726	292.018
350.5403	284.5621
350.7079	273.8304
350.8756	275.4145
351.0433	263.4343
351.211	254.0703
351.3786	254.2789
351.5463	265.8748
351.714	278.7783
351.8816	284.8202
352.0493	283.0457
352.2169	241.0594
352.3846	231.5536
352.5522	229.6435
352.7198	247.6422
352.8875	270.2408
353.0551	284.4264
353.2227	295.3686
353.3903	302.34
353.5579	306.2604
353.7255	308.9313
353.8931	318.8637
354.0607	329.843
354.2283	325.0271
354.3958	313.8613
354.5634	323.5204
354.731	330.5485
354.8986	332.5987
355.0661	319.1523
355.2337	308.6196
355.4012	299.6605
355.5688	289.9918
355.7363	299.2769
355.9039	295.412
356.0714	301.236
356.239	307.7363
356.4065	299.3434
356.574	265.7429
356.7415	240.0753
356.909	235.159
357.0765	239.7274
357.244	246.7141
357.4115	272.2203
357.579	279.9754
357.7465	263.6475
357.914	237.6326
358.0815	211.8669
358.249	199.9102
358.4164	203.6457
358.5839	206.0462
358.7513	220.146
358.9188	256.8857
359.0862	294.7328
359.2537	323.3274
359.4211	350.4256
359.5886	362.5525
359.756	371.1167
359.9234	370.8612
360.0909	363.9084
360.2583	346.244
360.4257	326.4612
360.5931	301.8753
360.7605	292.0872
360.9279	288.7318
361.0953	303.5372
361.2627	307.6036
361.4301	324.554
361.5974	317.6584
361.7648	302.3224
361.9322	290.993
362.0995	302.9886
362.2669	335.8254
362.4343	383.7184
362.6016	409.4291
362.769	402.2498
362.9363	378.5158
363.1036	341.0742
363.271	319.3351
363.4383	326.5104
363.6056	359.8857
363.7729	383.4435
363.9402	401.1961
364.1075	404.4659
364.2748	395.9497
364.4421	377.48
364.6094	347.4509
364.7767	344.7944
364.944	359.3023
365.1113	392.1419
365.2786	423.4558
365.4458	456.3237
365.6131	466.0574
365.7803	470.3934
365.9476	486.3583
366.1148	488.233
366.2821	476.1482
366.4493	466.8767
366.6166	450.8338
366.7838	450.6491
366.951	460.1996
367.1182	467.4398
367.2855	468.2776
367.4527	474.0889
367.6199	464.4094
367.7871	439.2725
367.9543	428.3559
368.1215	426.5222
368.2886	428.9667
368.4558	430.0428
368.623	433.9811
368.7902	437.3117
368.9573	466.3903
369.1245	497.7287
369.2917	513.7283
369.4588	520.7392
369.6259	518.4547
369.7931	523.351
369.9602	544.4374
370.1274	541.4752
370.2945	510.4642
370.4616	464.9243
370.6287	430.7042
370.7958	433.2319
370.963	468.19
371.1301	519.8115
371.2971	571.4582
371.4643	599.7327
371.6313	584.2902
371.7984	525.4244
371.9655	447.9791
372.1326	404.8217
372.2997	416.0862
372.4667	483.0789
372.6338	527.8079
372.8008	521.1526
372.9679	515.3981
373.1349	476.0429
373.3019	415.285
373.469	363.2357
373.636	348.7664
373.803	392.3075
373.9701	454.5337
374.1371	494.9274
374.3041	476.2079
374.4711	446.4919
374.6381	389.3452
374.8051	370.0276
374.9721	389.7516
375.1391	458.9828
375.3061	532.5731
375.473	587.5716
375.64	585.5874
375.8069	534.3651
375.9739	503.5047
376.1409	515.1121
376.3078	527.5512
376.4748	529.9437
376.6417	535.8739
376.8087	540.4272
376.9756	553.7107
377.1425	585.4984
377.3094	630.0287
377.4763	655.0525
377.6432	677.9833
377.8102	691.0153
377.9771	706.2861
378.144	734.9185
378.3109	737.6378
378.4777	719.6473
378.6446	662.3082
378.8115	614.118
378.9784	580.8723
379.1452	578.8169
379.3121	571.1701
379.4789	557.6391
379.6458	539.8239
379.8127	540.3821
379.9795	554.1875
380.1463	621.1304
380.3131	684.8217
380.48	711.7921
380.6468	707.1874
380.8136	695.4178
380.9804	698.8382
381.1472	703.2019
381.314	661.7086
381.4808	597.6418
381.6476	551.3369
381.8144	549.5455
381.9812	530.696
382.148	521.2971
382.3147	504.7462
382.4815	480.975
382.6483	439.6709
382.815	420.6084
382.9818	422.0213
383.1485	419.0475
383.3153	409.1017
383.482	412.5324
383.6487	420.8062
383.8155	427.05
383.9822	444.7021
384.1489	498.2381
384.3156	590.9224
384.4823	656.5819
384.649	680.7264
384.8157	684.1644
384.9824	683.8107
385.1491	674.696
385.3158	664.8416
385.4825	646.3431
385.6491	599.5875
385.8158	558.4904
385.9825	536.705
386.1491	589.3325
386.3157	671.1725
386.4824	715.5224
386.649	714.0331
386.8157	667.6216
386.9823	615.9513
387.1489	589.8809
387.3156	609.9468
387.4821	662.5887
387.6488	698.9989
387.8154	670.0751
387.982	632.0406
388.1486	611.9749
388.3152	618.2332
388.4818	628.2432
388.6483	625.8484
388.8149	628.4587
388.9815	653.7981
389.148	730.4825
389.3146	793.1816
389.4811	809.2667
389.6477	829.0486
389.8142	841.4656
389.9808	840.8989
390.1473	833.379
390.3138	804.0121
390.4804	782.002
390.6469	796.8463
390.8134	844.3063
390.9799	911.1403
391.1464	971.7839
391.3129	976.6974
391.4794	969.2757
391.6459	935.0682
391.8124	894.9419
391.9789	846.37
392.1453	808.4478
392.3118	788.7069
392.4782	763.2142
392.6447	701.0481
392.8112	585.8301
392.9776	472.8859
393.144	373.8725
393.3105	308.2108
393.4769	300.5917
393.6433	368.3582
393.8098	489.394
393.9762	605.6487
394.1426	691.7877
394.309	740.8183
394.4754	794.9111
394.6418	866.6654
394.8082	946.5096
394.9746	994.8923
395.141	1013.884
395.3073	1031.083
395.4737	1030.21
395.64	1025.753
395.8064	1024.778
395.9728	962.9888
396.1391	848.9457
396.3055	723.895
396.4718	601.191
396.6381	497.3794
396.8045	403.9477
396.9708	381.1216
397.1371	468.854
397.3034	611.3519
397.4697	759.5533
397.636	900.7536
397.8023	1030.548
397.9686	1124.103
398.1349	1197.038
398.3012	1204.287
398.4675	1195.799
398.6337	1222.598
398.8	1262.142
398.9662	1304.708
399.1325	1321.333
399.2988	1328.548
399.465	1332.546
399.6313	1312.962
399.7975	1306.611
399.9637	1357.188
400.1299	1403.884
400.2961	1400.085
400.4624	1350.639
400.6286	1314.476
400.7948	1331.219
400.961	1392.662
401.1272	1453.957
401.2934	1467.443
401.4595	1476.085
401.6257	1469.221
401.7919	1469.913
401.9581	1484.822
402.1242	1505.474
402.2904	1521.816
402.4565	1515.847
402.6227	1530.698
402.7888	1520.991
402.955	1480.367
403.1211	1405.528
403.2872	1334.935
403.4533	1359.672
403.6194	1463.149
403.7856	1565.978
403.9517	1607.594
404.1177	1592.739
404.2838	1516.693
404.4499	1402.664
404.616	1328.291
404.7821	1381.251
404.9482	1528.051
405.1142	1613.112
405.2803	1592.818
405.4464	1552.14
405.6124	1504.086
405.7784	1497.201
405.9445	1506.733
406.1105	1492.962
406.2766	1463.652
406.4426	1430.812
406.6086	1432.432
406.7746	1521.861
406.9406	1589.392
407.1066	1573.169
407.2726	1573.003
407.4386	1580.059
407.6046	1557.127
407.7706	1518.371
407.9366	1551.402
408.1025	1672.904
408.2685	1738.759
408.4344	1730.288
408.6004	1725.943
408.7664	1794.307
408.9323	1853.155
409.0983	1872.798
409.2642	1823.561
409.4301	1766.32
409.596	1697.793
409.762	1641.152
409.9279	1539.885
410.0938	1433.443
410.2597	1377.709
410.4256	1461.628
410.5915	1610.894
410.7574	1726.244
410.9232	1757.565
411.0891	1787.062
411.255	1825.675
411.4209	1885.945
411.5867	1927.443
411.7526	1920.824
411.9184	1869.391
412.0843	1857.274
412.2501	1866.766
412.4159	1881.75
412.5818	1876.182
412.7476	1858.105
412.9134	1833.766
413.0792	1799.504
413.245	1727.502
413.4108	1739.771
413.5766	1823.726
413.7424	1928.795
413.9082	1995.43
414.074	1977.092
414.2397	1871.799
414.4055	1786.923
414.5713	1796.683
414.737	1878.349
414.9028	1905.831
415.0685	1912.092
415.2343	1878.078
415.4	1841.22
415.5658	1822.309
415.7315	1833.929
415.8972	1893.534
416.0629	1974.583
416.2286	2059.378
416.3943	2078.125
416.56	2054.548
416.7257	2013.572
416.8914	1970.898
417.0571	1931.165
417.2228	1866.132
417.3884	1829.189
417.5541	1840.841
417.7198	1885.911
417.8854	1940.049
418.0511	1956.178
418.2167	1947.825
418.3824	1942.479
418.548	1924.971
418.7136	1927.625
418.8792	1928.746
419.0449	1981.513
419.2105	2077.88
419.3761	2125.398
419.5417	2080.116
419.7073	1966.827
419.8729	1884.424
420.0385	1888.977
420.204	1922.588
420.3696	2009.287
420.5352	2100.139
420.7007	2206.921
420.8663	2250.259
421.0319	2269.007
421.1974	2279.705
421.3629	2264.597
421.5285	2214.724
421.694	2170.921
421.8595	2201.552
422.0251	2286.168
422.1906	2265.658
422.3561	2145.867
422.5216	1924.304
422.6871	1760.528
422.8526	1833.574
423.0181	2071.41
423.1835	2238.878
423.349	2233.343
423.5145	2141.384
423.68	2084.282
423.8454	2077.669
424.0109	2127.944
424.1763	2218.297
424.3418	2263.473
424.5072	2289.807
424.6726	2252.394
424.838	2151.807
425.0035	2075.899
425.1689	2102.307
425.3343	2165.672
425.4997	2193.762
425.6651	2201.929
425.8305	2168.619
425.9959	2095.116
426.1613	2059.963
426.3267	2181.087
426.492	2322.924
426.6574	2358.946
426.8228	2296.548
426.9881	2102.248
427.1534	1898.185
427.3188	1856.937
427.4841	1925.905
427.6495	2101.189
427.8148	2223.577
427.9801	2240.156
428.1454	2213.268
428.3107	2201.81
428.476	2186.306
428.6414	2132.579
428.8066	2047.442
428.9719	1996.022
429.1372	1998.307
429.3025	2056.288
429.4678	2100.832
429.633	2039.65
429.7983	1864.856
429.9636	1655.019
430.1288	1551.353
430.294	1549.737
430.4593	1607.984
430.6245	1597.812
430.7897	1527.818
430.955	1497.715
431.1202	1563.143
431.2854	1779.557
431.4506	2061.703
431.6158	2394.587
431.781	2626.621
431.9462	2714.517
432.1114	2617.287
432.2766	2383.253
432.4417	2110.973
432.6069	1989.952
432.772	2155.787
432.9372	2447.435
433.1024	2617.101
433.2675	2651.517
433.4326	2623.822
433.5977	2552.094
433.7629	2314.013
433.928	2036.83
434.0931	1895.753
434.2582	2006.289
434.4233	2252.234
434.5884	2491.573
434.7535	2609.345
434.9186	2674.55
435.0837	2590.626
435.2488	2468.066
435.4138	2440.234
435.5789	2529.635
435.744	2642.186
435.909	2698.616
436.0741	2743.257
436.2391	2800.854
436.4042	2875.395
436.5692	2874.773
436.7342	2850.713
436.8992	2788.313
437.0643	2728.182
437.2293	2696.837
437.3943	2610.53
437.5593	2572.763
437.7243	2606.543
437.8893	2715.96
438.0542	2708.157
438.2192	2495.246
438.3842	2223.559
438.5491	2170.785
438.7141	2328.796
438.8791	2545.305
439.044	2616.595
439.209	2624.207
439.3739	2667.105
439.5388	2751.405
439.7037	2799.485
439.8687	2813.021
440.0336	2797.835
440.1985	2709.653
440.3634	2602.244
440.5283	2535.603
440.6932	2570.65
440.8581	2712.356
441.0229	2886.309
441.1878	3012.287
441.3527	3010.064
441.5175	2887.892
441.6824	2814.031
441.8472	2927.397
442.0121	3071.927
442.1769	3096.019
442.3418	3034.945
442.5066	3009.489
442.6714	3030.147
442.8362	3068.103
443.001	3052.25
443.1659	3046.333
443.3307	2976.778
443.4955	2916.489
443.6602	2938.465
443.825	3070.18
443.9898	3148.781
444.1546	3097.072
444.3193	3019.231
444.4841	3054.695
444.6488	3178.479
444.8136	3228.503
444.9783	3195.95
445.1431	3187.924
445.3078	3113.347
445.4725	2974.052
445.6372	2846.939
445.802	2807.857
445.9667	2847.296
446.1314	2872.861
446.2961	2953.725
446.4608	3073.778
446.6255	3184.387
446.7901	3187.155
446.9548	3157.387
447.1195	3187.694
447.2841	3303.015
447.4488	3409.795
447.6134	3441.3
447.7781	3450.118
447.9427	3356.483
448.1074	3223.831
448.272	3188.032
448.4366	3303.611
448.6012	3449.636
448.7658	3485.381
448.9305	3379.613
449.095	3315.023
449.2596	3326.64
449.4242	3369.328
449.5888	3382.976
449.7534	3423.433
449.9179	3484.982
450.0825	3522.523
450.2471	3576.495
450.4116	3668.546
450.5762	3740.414
450.7407	3773.819
450.9052	3767
451.0698	3744.22
451.2343	3667.611
451.3988	3626.095
451.5633	3584.594
451.7278	3577.249
451.8923	3577.251
452.0568	3638.246
452.2213	3638.933
452.3858	3562.003
452.5503	3456.857
452.7148	3330.827
452.8792	3213.613
453.0437	3209.18
453.2081	3267.83
453.3726	3293.873
453.537	3329.64
453.7015	3431.009
453.8659	3586.567
454.0303	3664.88
454.1947	3634.561
454.3592	3612.264
454.5236	3602.911
454.688	3551.547
454.8524	3446.122
455.0168	3420.586
455.1811	3439.002
455.3455	3456.319
455.5099	3474.114
455.6743	3514.385
455.8386	3609.888
456.003	3723.385
456.1673	3752.481
456.3317	3693.072
456.496	3607.774
456.6603	3598.61
456.8246	3661.219
456.989	3710.236
457.1533	3669.754
457.3176	3648.626
457.4819	3709.642
457.6462	3759.818
457.8105	3717.438
457.9748	3615.833
458.1391	3505.225
458.3033	3451.528
458.4676	3453.174
458.6319	3495.842
458.7961	3576.639
458.9604	3646.461
459.1246	3661.917
459.2888	3604.79
459.4531	3536.731
459.6173	3546.386
459.7815	3565.487
459.9457	3567.676
460.11	3588.294
460.2741	3587.119
460.4384	3599.746
460.6025	3667.843
460.7667	3732.993
460.9309	3794.518
461.0951	3806.475
461.2592	3758.819
461.4234	3749.059
461.5876	3772.526
461.7517	3765.592
461.9159	3753.052
462.08	3792.876
462.2441	3827.826
462.4082	3851.193
462.5724	3830.497
462.7365	3822.245
462.9006	3834.155
463.0647	3865.065
463.2288	3844.628
463.3929	3840.298
463.557	3815.869
463.721	3747.917
463.8851	3728.045
464.0492	3744.841
464.2132	3802.509
464.3773	3807.085
464.5414	3726.276
464.7054	3630.063
464.8694	3598.669
465.0334	3672.014
465.1975	3791.415
465.3615	3849.533
465.5255	3814.625
465.6895	3783.806
465.8535	3909.718
466.0175	4004.354
466.1815	3987.51
466.3455	3906.896
466.5095	3768.943
466.6734	3601.509
466.8374	3532.921
467.0014	3605.663
467.1653	3760.189
467.3293	3873.847
467.4932	3919.417
467.6571	3967.26
467.8211	3940.271
467.985	3868.451
468.1489	3823.298
468.3128	3865.095
468.4767	3936.034
468.6406	3984.038
468.8045	3980.624
468.9684	3980.427
469.1323	3947.804
469.2962	3942.213
469.46	3984.57
469.6239	4016.542
469.7878	3977.229
469.9516	3864.801
470.1154	3765.17
470.2793	3696.647
470.4431	3708.215
470.607	3766.425
470.7708	3792.216
470.9346	3784.302
471.0984	3831.618
471.2622	3908.756
471.426	3916.869
471.5898	3929.889
471.7536	4014.401
471.9174	4123.088
472.0811	4162.449
472.2449	4160.606
472.4087	4158.683
472.5724	4124.337
472.7362	4011.576
472.8999	3870.306
473.0637	3806.637
473.2274	3839.512
473.3911	3912.052
473.5548	3930.296
473.7185	3946.354
473.8822	3973.413
474.0459	4017.368
474.2096	4056.211
474.3733	4069.014
474.537	4092.766
474.7007	4113.478
474.8643	4112.785
475.028	4085.847
475.1917	4019.197
475.3553	3971.421
475.519	3921.467
475.6826	3920.548
475.8463	3978.015
476.0099	4024.591
476.1735	3967.206
476.3371	3880.751
476.5007	3775.669
476.6643	3784.174
476.8279	3863.165
476.9915	3956.573
477.1551	3995.06
477.3187	4024.241
477.4823	4084.055
477.6458	4128.801
477.8094	4156.336
477.9729	4127.409
478.1365	4116.155
478.3	4087.08
478.4636	3989.848
478.6271	3909.818
478.7906	3912.516
478.9541	3917.851
479.1176	3935.294
479.2812	4027.484
479.4447	4129.11
479.6082	4192.489
479.7716	4172.513
479.9351	4070.364
480.0986	4015.341
480.2621	4050.135
480.4255	4081.471
480.589	4061.07
480.7524	4000.675
480.9159	3981.214
481.0793	3999.843
481.2428	4028.071
481.4062	4081.385
481.5696	4141.329
481.733	4186.619
481.8964	4209.398
482.0598	4176.777
482.2232	4104.617
482.3866	4040.722
482.55	4029.366
482.7134	4054.798
482.8768	4122.711
483.0401	4094.484
483.2035	4060.329
483.3668	4051.586
483.5302	4104.206
483.6935	4104.647
483.8568	4040.319
484.0202	3959.975
484.1835	3944.732
484.3468	3975.976
484.5101	4012.488
484.6734	4059.571
484.8367	4076.827
485	4052.588
485.1633	4029.156
485.3266	3975.627
485.4899	3850.723
485.6531	3720.785
485.8164	3507.53
485.9796	3224.032
486.1429	2949.186
486.3061	2907.665
486.4694	3179.564
486.6326	3533.205
486.7958	3712.43
486.959	3733.582
487.1223	3649.536
487.2855	3593.068
487.4486	3679.346
487.6118	3808.158
487.775	3918.032
487.9382	3997.402
488.1014	4033.375
488.2646	4036.94
488.4277	3994.687
488.5909	3915.448
488.754	3834.077
488.9171	3746.289
489.0803	3666.702
489.2434	3710.921
489.4066	3903.296
489.5697	4133.989
489.7328	4246.37
489.8959	4233.562
490.059	4174.508
490.2221	4138.863
490.3852	4102.544
490.5482	4090.71
490.7113	4086.549
490.8744	4057.413
491.0374	3960.264
491.2005	3896.63
491.3636	3959.841
491.5266	4072.027
491.6896	4033.512
491.8527	3805
492.0157	3572.808
492.1787	3516.659
492.3417	3648.112
492.5047	3816.615
492.6677	3963.533
492.8307	4059.867
492.9937	4110.965
493.1567	4120.023
493.3196	4030.91
493.4826	3948.537
493.6456	3893.895
493.8085	3826.263
493.9715	3797.659
494.1344	3883.998
494.2974	4046.656
494.4603	4162.706
494.6232	4144.693
494.7861	4148.774
494.949	4150.396
495.1119	4186.734
495.2748	4181.757
495.4377	4091.348
495.6006	3950.912
495.7635	3799.523
495.9264	3811.628
496.0892	4002.182
496.2521	4199.767
496.4149	4208.003
496.5778	4134.577
496.7407	4075.749
496.9035	4026.052
497.0663	4043.6
497.2291	4116.55
497.3919	4175.268
497.5547	4192.329
497.7176	4168.203
497.8804	4114.577
498.0432	3999.123
498.2059	3848.538
498.3687	3693.361
498.5315	3695.531
498.6942	3872.082
498.857	4054.895
499.0198	4120.911
499.1825	4088.501
499.3452	4101.464
499.508	4130.968
499.6707	4167.083
499.8334	4138.088
499.9962	4063.494
500.1589	3961.059
500.3216	3903.448
500.4843	3865.752
500.6469	3837.227
500.8096	3874.772
500.9723	3971.369
501.135	4014.259
501.2976	3923.087
501.4603	3810.269
501.623	3786.967
501.7856	3812.081
501.9482	3846.272
502.1109	3903.507
502.2735	3991.854
502.4361	4022.03
502.5987	4015.052
502.7614	4035.793
502.924	4065.632
503.0865	4136.889
503.2491	4235.596
503.4117	4217.412
503.5743	4137.08
503.7368	4028.251
503.8994	3895.523
504.062	3796.85
504.2245	3770.187
504.3871	3911.589
504.5496	4135.671
504.7121	4242.46
504.8746	4170.639
505.0372	4078.711
505.1997	4047.184
505.3622	4120.234
505.5247	4225.188
505.6872	4291.446
505.8497	4326.899
506.0121	4364.658
506.1746	4366.509
506.3371	4326.465
506.4995	4219.732
506.662	4141.797
506.8244	4101.659
506.9869	4135.672
507.1493	4136.233
507.3117	4141.973
507.4742	4113.248
507.6366	4115.937
507.799	4093.263
507.9614	3966.946
508.1238	3882.103
508.2862	3914.047
508.4485	4013.252
508.6109	4120.349
508.7733	4185.524
508.9357	4212.397
509.098	4235.12
509.2604	4270.214
509.4227	4252.812
509.5851	4204.176
509.7474	4070.912
509.9097	3939.935
510.072	3908.716
510.2343	4012.632
510.3966	4108.581
510.5589	4112.386
510.7212	4040.936
510.8835	3976.454
511.0458	3961.367
511.2081	4030.154
511.3703	4089.574
511.5326	4152.111
511.6949	4154.734
511.8571	4184.894
512.0193	4164.378
512.1816	4087.944
512.3438	3950.277
512.506	3848.059
512.6682	3804.806
512.8304	3830.254
512.9926	3866.489
513.1548	3888.875
513.317	3889.807
513.4792	3897.33
513.6414	3890.998
513.8035	3828.994
513.9657	3737.249
514.1279	3698.166
514.29	3726.111
514.4521	3760.261
514.6143	3780.108
514.7764	3795.003
514.9385	3791.443
515.1006	3810.612
515.2628	3813.551
515.4249	3829.902
515.587	3870.391
515.7491	3917.72
515.9111	3944.43
516.0732	3921.498
516.2353	3845.231
