SPECTRUM DATA FILE
SpectrumCount:	1
PixelCount:	3648
UserName:	ToughBook User
SampleName:	
LightSource:	
Comments:	
DeviceName:	Qwave
DeviceManufacturer:	Broadcom
DeviceSerialNo:	11311

Name:	last spectrum
Date:	2024-05-02T14:42:59.5651874+02:00
ExposureTime:	0.02
TemporalAvg:	1
IntensityUnit:	normalizedCounts
CCDLoadLevel:	0.05339822
Temperature:	31.05875
DiagramColor:	200
ProcessingSteps:	335

Wavelength [nm]	Intensity1
334.421	1.163682
334.5891	5.675886
334.7573	5.960929
334.9254	4.378167
335.0935	11.46605
335.2616	10.52753
335.4297	9.878085
335.5978	9.785174
335.7659	10.82293
335.934	7.646725
336.1021	3.511164
336.2701	4.186556
336.4382	3.826581
336.6063	10.90386
336.7744	8.045953
336.9424	3.233109
337.1105	3.393342
337.2785	4.158423
337.4466	7.311351
337.6146	7.620808
337.7827	8.159132
337.9507	10.70083
338.1187	5.972131
338.2867	5.488244
338.4548	8.851346
338.6228	9.241072
338.7908	8.068581
338.9588	7.978539
339.1268	6.673353
339.2948	6.63467
339.4628	7.422342
339.6308	8.652451
339.7988	5.234263
339.9667	6.922063
340.1347	9.239789
340.3027	5.625884
340.4707	3.594329
340.6386	4.125926
340.8066	2.359338
340.9745	3.896032
341.1425	1.966291
341.3104	4.197894
341.4784	5.4314
341.6463	2.273361
341.8142	5.818268
341.9821	5.744884
342.1501	8.364879
342.318	9.814882
342.4859	6.784324
342.6538	12.91101
342.8217	8.528103
342.9896	6.514532
343.1575	8.631489
343.3254	9.654287
343.4933	7.227838
343.6612	9.496822
343.829	8.965715
343.9969	9.210599
344.1648	6.49135
344.3326	4.077982
344.5005	7.239302
344.6683	2.959628
344.8362	9.003633
345.004	9.039963
345.1719	5.987784
345.3397	7.692663
345.5075	8.662062
345.6754	8.889521
345.8432	6.594141
346.011	11.38614
346.1788	11.68974
346.3466	13.24387
346.5144	8.584714
346.6822	6.717294
346.85	9.661907
347.0178	7.096929
347.1856	6.250259
347.3534	8.521581
347.5211	12.57618
347.6889	11.02332
347.8567	10.16797
348.0244	7.986578
348.1922	10.54532
348.3599	8.243093
348.5277	7.349384
348.6954	7.887188
348.8632	8.138001
349.0309	3.678907
349.1986	4.842321
349.3663	1.37598
349.5341	6.172088
349.7018	6.285782
349.8695	2.771231
350.0372	6.987137
350.2049	9.303405
350.3726	7.794682
350.5403	9.773802
350.7079	6.330015
350.8756	4.27668
351.0433	7.15461
351.211	10.73239
351.3786	6.635272
351.5463	6.034353
351.714	7.184213
351.8816	8.095742
352.0493	6.333031
352.2169	7.474533
352.3846	5.952116
352.5522	6.22378
352.7198	7.647808
352.8875	12.02759
353.0551	9.232591
353.2227	8.470613
353.3903	7.442389
353.5579	8.513067
353.7255	7.67838
353.8931	6.738799
354.0607	5.373029
354.2283	10.1063
354.3958	8.360965
354.5634	6.724344
354.731	5.944078
354.8986	13.39339
355.0661	8.895111
355.2337	9.443144
355.4012	7.309467
355.5688	5.123465
355.7363	6.395651
355.9039	5.874036
356.0714	9.289333
356.239	8.363438
356.4065	9.473111
356.574	6.512087
356.7415	7.01006
356.909	12.06688
357.0765	9.722271
357.244	11.03279
357.4115	8.23867
357.579	10.07822
357.7465	8.65906
357.914	8.7544
358.0815	9.017386
358.249	5.529211
358.4164	2.286107
358.5839	7.291469
358.7513	7.179011
358.9188	12.42849
359.0862	10.87915
359.2537	7.08764
359.4211	7.70919
359.5886	8.158304
359.756	7.184648
359.9234	8.60091
360.0909	4.658028
360.2583	4.967356
360.4257	6.32583
360.5931	2.77434
360.7605	2.354801
360.9279	10.52029
361.0953	7.580079
361.2627	5.219479
361.4301	9.475047
361.5974	12.13337
361.7648	7.69866
361.9322	7.97891
362.0995	7.712312
362.2669	8.167858
362.4343	10.95217
362.6016	13.70338
362.769	11.537
362.9363	8.342591
363.1036	9.233435
363.271	4.146025
363.4383	10.13027
363.6056	7.506588
363.7729	9.474679
363.9402	7.691345
364.1075	4.86442
364.2748	11.77971
364.4421	9.532201
364.6094	6.673382
364.7767	11.1153
364.944	11.61878
365.1113	8.910986
365.2786	10.69202
365.4458	12.11493
365.6131	13.05756
365.7803	11.9761
365.9476	9.861293
366.1148	13.20706
366.2821	14.26631
366.4493	7.479557
366.6166	7.761687
366.7838	10.74266
366.951	7.182343
367.1182	7.908029
367.2855	10.07696
367.4527	9.895927
367.6199	8.833076
367.7871	12.77814
367.9543	8.735078
368.1215	8.229775
368.2886	11.89389
368.4558	14.61233
368.623	14.07582
368.7902	9.15292
368.9573	8.715409
369.1245	8.519236
369.2917	10.748
369.4588	9.477087
369.6259	14.87685
369.7931	13.77992
369.9602	12.68299
370.1274	12.22436
370.2945	10.16737
370.4616	10.18253
370.6287	5.496275
370.7958	10.9311
370.963	15.4892
371.1301	12.39389
371.2971	12.49028
371.4643	6.40848
371.6313	8.494719
371.7984	11.83243
371.9655	13.47283
372.1326	8.901992
372.2997	7.971839
372.4667	12.66808
372.6338	14.68706
372.8008	17.67108
372.9679	13.85504
373.1349	8.368917
373.3019	9.400902
373.469	12.22036
373.636	10.53722
373.803	14.29028
373.9701	15.01358
374.1371	12.36347
374.3041	10.96235
374.4711	10.79745
374.6381	13.62323
374.8051	13.49097
374.9721	10.4049
375.1391	11.88317
375.3061	12.44895
375.473	12.08927
375.64	11.66102
375.8069	9.254417
375.9739	11.64741
376.1409	12.18989
376.3078	9.247327
376.4748	10.7661
376.6417	15.14445
376.8087	17.31406
376.9756	14.24519
377.1425	10.56455
377.3094	11.12464
377.4763	15.42158
377.6432	17.89782
377.8102	14.62131
377.9771	16.1739
378.144	9.474648
378.3109	10.22359
378.4777	12.70441
378.6446	9.952879
378.8115	13.51024
378.9784	13.86215
379.1452	10.50254
379.3121	5.745587
379.4789	10.18012
379.6458	8.481994
379.8127	9.884761
379.9795	11.77578
380.1463	12.31767
380.3131	13.92239
380.48	12.8906
380.6468	12.65376
380.8136	7.859888
380.9804	11.67382
381.1472	13.40095
381.314	15.99987
381.4808	12.62119
381.6476	14.18724
381.8144	15.01711
381.9812	13.64406
382.148	12.587
382.3147	13.65228
382.4815	8.960849
382.6483	11.01072
382.815	12.57076
382.9818	13.34035
383.1485	11.72641
383.3153	12.57376
383.482	13.30798
383.6487	9.826942
383.8155	11.35955
383.9822	9.137958
384.1489	9.506662
384.3156	14.54337
384.4823	15.54008
384.649	11.527
384.8157	8.86012
384.9824	14.62122
385.1491	15.11202
385.3158	18.54365
385.4825	16.637
385.6491	11.56143
385.8158	15.88334
385.9825	12.77279
386.1491	13.96172
386.3157	11.06686
386.4824	16.6109
386.649	15.03439
386.8157	14.97882
386.9823	14.84523
387.1489	14.97718
387.3156	16.7966
387.4821	14.92546
387.6488	14.00294
387.8154	12.5438
387.982	15.00378
388.1486	18.15531
388.3152	15.54367
388.4818	13.00439
388.6483	13.84973
388.8149	12.90579
388.9815	9.852767
389.148	20.07438
389.3146	18.44604
389.4811	18.10973
389.6477	15.53797
389.8142	10.71219
389.9808	12.15191
390.1473	10.31276
390.3138	13.6955
390.4804	16.00322
390.6469	13.95806
390.8134	11.82619
390.9799	17.46186
391.1464	17.73295
391.3129	16.31996
391.4794	15.52585
391.6459	17.76361
391.8124	17.40057
391.9789	15.32376
392.1453	17.92899
392.3118	13.8529
392.4782	15.3247
392.6447	12.82252
392.8112	12.21791
392.9776	13.82461
393.144	12.09172
393.3105	9.650711
393.4769	10.86762
393.6433	9.732873
393.8098	14.01344
393.9762	13.43364
394.1426	13.37055
394.309	17.4358
394.4754	16.1047
394.6418	19.28003
394.8082	17.22789
394.9746	17.27652
395.141	19.30284
395.3073	18.5173
395.4737	16.29967
395.64	20.74753
395.8064	18.68651
395.9728	16.62681
396.1391	14.33869
396.3055	14.42578
396.4718	15.10608
396.6381	13.86388
396.8045	12.74887
396.9708	13.94531
397.1371	12.87318
397.3034	16.41366
397.4697	14.78594
397.636	15.29032
397.8023	20.06419
397.9686	26.03155
398.1349	23.74238
398.3012	20.38951
398.4675	20.07295
398.6337	18.61739
398.8	21.5176
398.9662	21.71253
399.1325	17.18568
399.2988	21.95015
399.465	21.94223
399.6313	26.51493
399.7975	22.37931
399.9637	21.5638
400.1299	24.67491
400.2961	23.73495
400.4624	25.07475
400.6286	26.27009
400.7948	21.26148
400.961	23.13
401.1272	20.99682
401.2934	22.4227
401.4595	21.96442
401.6257	20.33879
401.7919	22.97675
401.9581	18.85094
402.1242	22.26089
402.2904	28.29144
402.4565	21.03583
402.6227	24.07835
402.7888	21.52056
402.955	23.27437
403.1211	23.38278
403.2872	22.40924
403.4533	23.05683
403.6194	24.94762
403.7856	25.03906
403.9517	21.81363
404.1177	26.22497
404.2838	20.44321
404.4499	24.9491
404.616	23.67607
404.7821	23.27608
404.9482	27.53769
405.1142	27.02136
405.2803	24.10179
405.4464	23.69027
405.6124	22.09304
405.7784	21.38844
405.9445	21.45626
406.1105	22.30776
406.2766	23.4883
406.4426	21.20179
406.6086	20.95439
406.7746	28.47198
406.9406	29.50778
407.1066	24.90324
407.2726	23.29979
407.4386	23.88075
407.6046	27.36456
407.7706	23.08213
407.9366	27.4456
408.1025	27.06038
408.2685	27.66809
408.4344	25.51971
408.6004	22.25145
408.7664	29.53893
408.9323	30.83263
409.0983	33.23062
409.2642	28.63989
409.4301	25.4429
409.596	29.45869
409.762	30.37548
409.9279	30.77879
410.0938	24.7672
410.2597	20.59085
410.4256	24.67589
410.5915	29.24978
410.7574	30.05697
410.9232	31.69314
411.0891	33.31316
411.255	32.9705
411.4209	33.00709
411.5867	30.42855
411.7526	27.78302
411.9184	28.47973
412.0843	30.19775
412.2501	36.14386
412.4159	28.60681
412.5818	30.5037
412.7476	33.11886
412.9134	26.8517
413.0792	25.48962
413.245	33.74528
413.4108	32.88681
413.5766	34.93305
413.7424	32.19958
413.9082	33.37418
414.074	31.64076
414.2397	33.96833
414.4055	28.01701
414.5713	29.56109
414.737	33.45617
414.9028	30.12968
415.0685	32.34885
415.2343	33.40715
415.4	32.75296
415.5658	33.05236
415.7315	32.70054
415.8972	34.11415
416.0629	35.32174
416.2286	35.55744
416.3943	33.33381
416.56	27.89745
416.7257	29.75207
416.8914	31.70691
417.0571	33.94308
417.2228	34.0465
417.3884	32.5354
417.5541	30.91837
417.7198	34.95352
417.8854	32.35984
418.0511	36.23545
418.2167	35.17666
418.3824	33.1548
418.548	34.51768
418.7136	29.68163
418.8792	33.73879
419.0449	35.8238
419.2105	35.734
419.3761	33.90591
419.5417	37.55766
419.7073	32.5123
419.8729	31.49058
420.0385	36.06423
420.204	33.11349
420.3696	36.00785
420.5352	39.31493
420.7007	42.2113
420.8663	40.72462
421.0319	41.62968
421.1974	34.57714
421.3629	37.83694
421.5285	33.83828
421.694	37.6127
421.8595	43.03594
422.0251	38.54585
422.1906	40.19413
422.3561	38.7208
422.5216	35.44358
422.6871	33.95786
422.8526	36.2998
423.0181	42.9261
423.1835	41.97929
423.349	38.74286
423.5145	34.63468
423.68	38.95667
423.8454	42.36564
424.0109	40.42862
424.1763	38.68507
424.3418	39.03654
424.5072	34.56407
424.6726	36.48529
424.838	43.3542
425.0035	43.82214
425.1689	44.41938
425.3343	44.42736
425.4997	43.56785
425.6651	40.2085
425.8305	39.72455
425.9959	32.67221
426.1613	40.14474
426.3267	38.02404
426.492	41.37462
426.6574	45.65821
426.8228	47.44934
426.9881	39.20179
427.1534	35.09142
427.3188	38.2438
427.4841	36.80576
427.6495	36.25251
427.8148	39.73127
427.9801	42.83635
428.1454	42.56433
428.3107	46.67712
428.476	44.61237
428.6414	41.59763
428.8066	36.76834
428.9719	39.68485
429.1372	40.91513
429.3025	38.91209
429.4678	37.62857
429.633	43.46365
429.7983	42.37707
429.9636	35.22075
430.1288	29.13895
430.294	37.05547
430.4593	34.87091
430.6245	33.39667
430.7897	30.90049
430.955	30.25123
431.1202	34.07613
431.2854	38.38567
431.4506	44.0186
431.6158	50.00183
431.781	53.83085
431.9462	55.58806
432.1114	54.13588
432.2766	37.99245
432.4417	40.40348
432.6069	43.55153
432.772	46.1683
432.9372	44.49319
433.1024	46.25352
433.2675	47.45222
433.4326	49.33631
433.5977	47.14329
433.7629	45.21532
433.928	41.80714
434.0931	39.25019
434.2582	39.34178
434.4233	45.01961
434.5884	50.93442
434.7535	48.65896
434.9186	49.015
435.0837	51.04278
435.2488	48.15923
435.4138	46.637
435.5789	50.0989
435.744	52.31129
435.909	54.99172
436.0741	54.33429
436.2391	58.41237
436.4042	58.58812
436.5692	58.09251
436.7342	57.53348
436.8992	54.6419
437.0643	53.02271
437.2293	49.7427
437.3943	50.84402
437.5593	51.32724
437.7243	51.13763
437.8893	51.78934
438.0542	51.60999
438.2192	50.59417
438.3842	50.84755
438.5491	45.42374
438.7141	53.57432
438.8791	54.87503
439.044	59.79778
439.209	57.90745
439.3739	50.42176
439.5388	59.99442
439.7037	64.08305
439.8687	53.49121
440.0336	53.58749
440.1985	55.41361
440.3634	55.54763
440.5283	47.71213
440.6932	53.0737
440.8581	56.18163
441.0229	57.62242
441.1878	56.78183
441.3527	63.92769
441.5175	54.6929
441.6824	61.94624
441.8472	64.20411
442.0121	61.59076
442.1769	62.46179
442.3418	62.93439
442.5066	62.25389
442.6714	63.32641
442.8362	61.31153
443.001	59.03342
443.1659	55.20227
443.3307	61.4922
443.4955	58.39914
443.6602	59.38472
443.825	65.17977
443.9898	71.04846
444.1546	67.58549
444.3193	61.02595
444.4841	53.7635
444.6488	63.89312
444.8136	70.04594
444.9783	69.15085
445.1431	66.29399
445.3078	64.80184
445.4725	60.71678
445.6372	59.51649
445.802	62.0802
445.9667	58.92031
446.1314	59.45894
446.2961	62.0896
446.4608	59.1766
446.6255	62.27058
446.7901	68.88261
446.9548	65.01048
447.1195	67.82565
447.2841	67.43719
447.4488	64.00928
447.6134	66.34983
447.7781	74.27612
447.9427	68.50116
448.1074	67.90685
448.272	67.42896
448.4366	65.01762
448.6012	68.70808
448.7658	72.71568
448.9305	68.21916
449.095	69.36604
449.2596	66.72015
449.4242	67.1273
449.5888	71.62951
449.7534	69.97629
449.9179	71.23128
450.0825	75.57743
450.2471	77.56113
450.4116	77.26569
450.5762	77.83472
450.7407	77.76038
450.9052	78.14549
451.0698	75.07449
451.2343	74.97131
451.3988	75.9658
451.5633	73.36172
451.7278	75.82349
451.8923	75.17205
452.0568	73.83685
452.2213	79.69297
452.3858	71.55282
452.5503	71.02361
452.7148	67.59132
452.8792	64.87645
453.0437	66.76467
453.2081	68.76418
453.3726	69.36491
453.537	63.12454
453.7015	68.14587
453.8659	73.89024
454.0303	79.29895
454.1947	78.26057
454.3592	78.00093
454.5236	79.23174
454.688	75.02873
454.8524	71.12232
455.0168	73.74947
455.1811	72.65037
455.3455	73.12978
455.5099	73.25005
455.6743	71.80272
455.8386	77.20459
456.003	76.85359
456.1673	77.03296
456.3317	77.80666
456.496	77.75204
456.6603	76.13962
456.8246	74.59843
456.989	83.58085
457.1533	87.67841
457.3176	76.55409
457.4819	79.32005
457.6462	84.66478
457.8105	81.40753
457.9748	81.27711
458.1391	77.46694
458.3033	78.25111
458.4676	87.18736
458.6319	80.43044
458.7961	79.03789
458.9604	80.03835
459.1246	81.56733
459.2888	80.23343
459.4531	78.50011
459.6173	75.24931
459.7815	75.66508
459.9457	80.3769
460.11	79.07721
460.2741	82.29121
460.4384	80.73651
460.6025	74.77222
460.7667	84.08374
460.9309	79.70135
461.0951	78.60174
461.2592	80.1875
461.4234	90.05067
461.5876	84.66639
461.7517	81.21266
461.9159	81.8938
462.08	81.14185
462.2441	83.4467
462.4082	80.50359
462.5724	81.35072
462.7365	83.58375
462.9006	85.99388
463.0647	80.54405
463.2288	85.43881
463.3929	85.6141
463.557	82.81063
463.721	80.45992
463.8851	82.38326
464.0492	83.62972
464.2132	84.33853
464.3773	80.48868
464.5414	77.70187
464.7054	82.93772
464.8694	80.57767
465.0334	78.10165
465.1975	83.72072
465.3615	84.34109
465.5255	80.32731
465.6895	84.478
465.8535	83.19326
466.0175	81.77836
466.1815	83.28601
466.3455	87.31248
466.5095	84.13432
466.6734	76.9636
466.8374	81.74887
467.0014	83.6534
467.1653	85.494
467.3293	80.97169
467.4932	79.6936
467.6571	82.40364
467.8211	84.27422
467.985	82.77397
468.1489	88.78822
468.3128	86.34057
468.4767	89.36799
468.6406	86.65778
468.8045	81.77041
468.9684	82.66274
469.1323	82.43904
469.2962	89.20776
469.46	87.04622
469.6239	82.07228
469.7878	87.69059
469.9516	80.15919
470.1154	76.78045
470.2793	79.59354
470.4431	83.48766
470.607	85.95026
470.7708	85.36736
470.9346	83.88313
471.0984	85.95853
471.2622	83.8987
471.426	84.71664
471.5898	89.51717
471.7536	86.35741
471.9174	89.47456
472.0811	85.71765
472.2449	89.65457
472.4087	95.45383
472.5724	95.73215
472.7362	90.00313
472.8999	84.28632
473.0637	83.30733
473.2274	85.17681
473.3911	86.30676
473.5548	85.25423
473.7185	82.60379
473.8822	84.025
474.0459	89.69695
474.2096	91.76904
474.3733	89.49216
474.537	86.62299
474.7007	88.65987
474.8643	93.28288
475.028	92.62818
475.1917	89.97028
475.3553	93.08559
475.519	91.76359
475.6826	90.75807
475.8463	91.59842
476.0099	89.37966
476.1735	87.21004
476.3371	88.34943
476.5007	84.96381
476.6643	91.73436
476.8279	83.79081
476.9915	83.01833
477.1551	89.0346
477.3187	94.78967
477.4823	97.58527
477.6458	94.14959
477.8094	91.11091
477.9729	91.24961
478.1365	88.50428
478.3	85.24304
478.4636	86.70914
478.6271	85.36243
478.7906	91.64861
478.9541	92.90221
479.1176	91.7869
479.2812	93.29102
479.4447	94.72279
479.6082	98.36162
479.7716	96.19279
479.9351	91.92548
480.0986	89.11436
480.2621	89.47268
480.4255	91.36663
480.589	93.24635
480.7524	92.32238
480.9159	95.47087
481.0793	93.77151
481.2428	89.00846
481.4062	93.98667
481.5696	92.17991
481.733	90.42773
481.8964	96.70488
482.0598	94.88611
482.2232	89.37698
482.3866	91.11424
482.55	92.58286
482.7134	95.0883
482.8768	91.35436
483.0401	93.46264
483.2035	91.04369
483.3668	92.48497
483.5302	91.22878
483.6935	92.72389
483.8568	88.21149
484.0202	90.86536
484.1835	92.0453
484.3468	90.66036
484.5101	90.71799
484.6734	94.94065
484.8367	92.18452
485	90.28082
485.1633	90.25389
485.3266	89.26955
485.4899	89.97031
485.6531	84.82294
485.8164	80.53864
485.9796	74.62903
486.1429	71.40047
486.3061	73.43233
486.4694	81.39846
486.6326	83.44019
486.7958	88.99239
486.959	89.04784
487.1223	87.21812
487.2855	84.67144
487.4486	83.3548
487.6118	85.80131
487.775	89.78359
487.9382	91.82001
488.1014	98.62267
488.2646	96.22426
488.4277	90.65319
488.5909	88.31216
488.754	90.8175
488.9171	91.46465
489.0803	94.40456
489.2434	91.33588
489.4066	93.73779
489.5697	101.8066
489.7328	101.1797
489.8959	101.1135
490.059	94.44666
490.2221	96.75919
490.3852	96.05146
490.5482	93.71655
490.7113	92.10354
490.8744	90.68184
491.0374	95.04371
491.2005	93.62127
491.3636	93.60592
491.5266	98.99841
491.6896	92.65659
491.8527	84.65538
492.0157	87.70408
492.1787	89.89602
492.3417	90.28874
492.5047	93.39148
492.6677	99.1733
492.8307	97.97279
492.9937	96.73061
493.1567	98.66199
493.3196	96.11788
493.4826	101.9518
493.6456	104.623
493.8085	93.92765
493.9715	94.20853
494.1344	98.04063
494.2974	99.81874
494.4603	100.8707
494.6232	101.4256
494.7861	100.5844
494.949	92.73678
495.1119	101.6212
495.2748	101.7609
495.4377	102.6336
495.6006	96.51757
495.7635	94.04884
495.9264	94.06823
496.0892	94.93507
496.2521	99.55446
496.4149	99.91684
496.5778	98.15915
496.7407	99.86368
496.9035	98.86861
497.0663	101.6746
497.2291	106.7497
497.3919	98.88702
497.5547	101.4933
497.7176	103.2019
497.8804	106.5882
498.0432	99.0173
498.2059	94.74763
498.3687	89.95383
498.5315	92.65755
498.6942	98.58115
498.857	99.38144
499.0198	102.613
499.1825	103.9821
499.3452	108.5952
499.508	107.2747
499.6707	106.6706
499.8334	103.5105
499.9962	105.212
500.1589	104.1758
500.3216	101.2415
500.4843	104.333
500.6469	96.02273
500.8096	98.21655
500.9723	103.9656
501.135	99.8924
501.2976	100.6717
501.4603	103.1216
501.623	102.7669
501.7856	104.2048
501.9482	100.7932
502.1109	106.4568
502.2735	106.4662
502.4361	107.3053
502.5987	112.7734
502.7614	111.1174
502.924	111.2372
503.0865	111.3533
503.2491	109.5569
503.4117	107.4289
503.5743	107.8332
503.7368	110.2133
503.8994	103.1066
504.062	107.9394
504.2245	104.1159
504.3871	111.2168
504.5496	111.6595
504.7121	117.7812
504.8746	115.3439
505.0372	110.8351
505.1997	114.0155
505.3622	110.2636
505.5247	117.3674
505.6872	114.3605
505.8497	119.5784
506.0121	129.8351
506.1746	124.3589
506.3371	120.3276
506.4995	117.4167
506.662	116.4859
506.8244	116.4382
506.9869	117.6122
507.1493	125.5708
507.3117	122.2999
507.4742	117.8304
507.6366	118.821
507.799	120.9201
507.9614	118.0381
508.1238	121.4853
508.2862	123.6749
508.4485	119.8776
508.6109	126.7572
508.7733	128.2617
508.9357	125.2811
509.098	124.0973
509.2604	131.8238
509.4227	128.0302
509.5851	124.4441
509.7474	126.0855
509.9097	122.5566
510.072	124.8297
510.2343	130.0213
510.3966	134.788
510.5589	131.2737
510.7212	126.6101
510.8835	131.1776
511.0458	125.51
511.2081	127.5472
511.3703	133.996
511.5326	130.0984
511.6949	136.4276
511.8571	141.5554
512.0193	137.7218
512.1816	130.5532
512.3438	133.8928
512.506	138.6189
512.6682	135.6037
512.8304	132.4585
512.9926	134.1333
513.1548	139.5267
513.317	137.086
513.4792	138.0589
513.6414	141.1918
513.8035	129.1364
513.9657	137.0457
514.1279	128.7771
514.29	133.1481
514.4521	132.2934
514.6143	136.5279
514.7764	135.6184
514.9385	139.8526
515.1006	133.6789
515.2628	136.5312
515.4249	138.2404
515.587	140.4464
515.7491	145.1374
515.9111	144.6188
516.0732	141.1048
516.2353	142.6403
516.3973	139.927
