SPECTRUM DATA FILE
SpectrumCount:	1
PixelCount:	3648
UserName:	ToughBook User
SampleName:	
LightSource:	
Comments:	
DeviceName:	Qwave
DeviceManufacturer:	Broadcom
DeviceSerialNo:	11311

Name:	last spectrum
Date:	2024-05-02T14:42:14.7947174+02:00
ExposureTime:	0.02
TemporalAvg:	1
IntensityUnit:	normalizedCounts
CCDLoadLevel:	0.05350634
Temperature:	30.95038
DiagramColor:	200
ProcessingSteps:	335

Wavelength [nm]	Intensity1
334.421	2.938001
334.5891	5.81943
334.7573	6.539382
334.9254	9.331593
335.0935	5.150312
335.2616	6.081825
335.4297	4.170589
335.5978	6.521295
335.7659	9.792067
335.934	7.825174
336.1021	4.938323
336.2701	5.027891
336.4382	8.279779
336.6063	7.94533
336.7744	7.816105
336.9424	6.930106
337.1105	5.395113
337.2785	10.26812
337.4466	4.458699
337.6146	5.990598
337.7827	8.957976
337.9507	3.744526
338.1187	2.975816
338.2867	5.740118
338.4548	2.794017
338.6228	7.828837
338.7908	8.427692
338.9588	1.747687
339.1268	6.417822
339.2948	5.047417
339.4628	8.941709
339.6308	7.340997
339.7988	2.509223
339.9667	6.041468
340.1347	6.516303
340.3027	5.625638
340.4707	2.633625
340.6386	5.915706
340.8066	7.429613
340.9745	8.934827
341.1425	6.561652
341.3104	3.370581
341.4784	6.237886
341.6463	4.494599
341.8142	5.372827
341.9821	6.191412
342.1501	8.256254
342.318	6.903486
342.4859	4.710081
342.6538	4.096578
342.8217	2.834441
342.9896	6.380682
343.1575	8.867842
343.3254	6.82575
343.4933	8.330278
343.6612	4.017243
343.829	6.161041
343.9969	9.461052
344.1648	9.008476
344.3326	9.232667
344.5005	2.509905
344.6683	4.649673
344.8362	8.322145
345.004	8.532016
345.1719	6.556568
345.3397	6.397655
345.5075	1.884605
345.6754	4.154983
345.8432	2.501858
346.011	6.470014
346.1788	11.70136
346.3466	8.902141
346.5144	5.553762
346.6822	3.996151
346.85	6.153552
347.0178	4.863802
347.1856	4.493752
347.3534	8.118398
347.5211	7.366323
347.6889	2.203657
347.8567	9.63775
348.0244	8.195929
348.1922	6.10758
348.3599	4.898033
348.5277	2.545973
348.6954	1.263322
348.8632	3.234075
349.0309	7.648109
349.1986	3.920782
349.3663	-0.1949822
349.5341	-1.294529
349.7018	4.072043
349.8695	8.761192
350.0372	8.669691
350.2049	9.155492
350.3726	7.524367
350.5403	7.004834
350.7079	8.754293
350.8756	8.543949
351.0433	4.258787
351.211	8.866957
351.3786	8.616416
351.5463	5.673507
351.714	7.217621
351.8816	8.158548
352.0493	3.419838
352.2169	8.277327
352.3846	9.349134
352.5522	9.368771
352.7198	5.036165
352.8875	9.362816
353.0551	10.80956
353.2227	6.325861
353.3903	3.706124
353.5579	7.217756
353.7255	6.492016
353.8931	10.87173
354.0607	14.07823
354.2283	9.203828
354.3958	5.951403
354.5634	7.187415
354.731	3.140046
354.8986	4.931083
355.0661	10.3299
355.2337	9.110885
355.4012	5.543342
355.5688	8.894594
355.7363	11.98524
355.9039	9.390582
356.0714	9.945605
356.239	8.120715
356.4065	5.079404
356.574	7.219424
356.7415	5.503094
356.909	6.751118
357.0765	4.804202
357.244	10.08064
357.4115	12.18835
357.579	7.43575
357.7465	7.48617
357.914	6.201286
358.0815	7.651302
358.249	4.012153
358.4164	9.234333
358.5839	6.550645
358.7513	4.288815
358.9188	6.023566
359.0862	11.3997
359.2537	7.903918
359.4211	5.449776
359.5886	3.796207
359.756	8.324566
359.9234	10.85302
360.0909	4.626012
360.2583	9.014408
360.4257	5.950688
360.5931	7.406384
360.7605	7.94107
360.9279	11.86417
361.0953	10.43983
361.2627	7.977336
361.4301	4.093571
361.5974	5.125128
361.7648	8.781536
361.9322	6.646778
362.0995	7.127886
362.2669	5.118635
362.4343	8.700331
362.6016	8.249041
362.769	7.302034
362.9363	11.10746
363.1036	10.33492
363.271	7.970999
363.4383	7.909944
363.6056	8.676899
363.7729	9.030106
363.9402	9.036725
364.1075	7.94931
364.2748	10.07595
364.4421	5.356603
364.6094	8.218119
364.7767	10.41377
364.944	9.753703
365.1113	8.784533
365.2786	7.597059
365.4458	11.35205
365.6131	10.63907
365.7803	12.72966
365.9476	13.52721
366.1148	8.453887
366.2821	9.591933
366.4493	9.339477
366.6166	8.389839
366.7838	9.136929
366.951	5.550003
367.1182	5.776996
367.2855	7.595742
367.4527	8.610467
367.6199	11.42536
367.7871	12.87484
367.9543	8.986006
368.1215	12.95148
368.2886	12.09444
368.4558	11.47707
368.623	7.761172
368.7902	6.126142
368.9573	10.91565
369.1245	6.169047
369.2917	9.729607
369.4588	9.728685
369.6259	5.622174
369.7931	4.563868
369.9602	3.029422
370.1274	7.005182
370.2945	8.104307
370.4616	9.389721
370.6287	12.59119
370.7958	10.99542
370.963	8.803734
371.1301	11.38606
371.2971	11.50719
371.4643	10.29671
371.6313	8.489401
371.7984	9.220999
371.9655	7.62685
372.1326	8.033572
372.2997	6.77329
372.4667	10.05685
372.6338	11.84333
372.8008	9.693932
372.9679	6.114805
373.1349	11.1609
373.3019	12.29062
373.469	11.71129
373.636	11.04689
373.803	6.120545
373.9701	11.56837
374.1371	4.971208
374.3041	5.627233
374.4711	8.421117
374.6381	6.687963
374.8051	9.219029
374.9721	10.99325
375.1391	13.13265
375.3061	7.21671
375.473	8.031212
375.64	8.342367
375.8069	10.63243
375.9739	7.815319
376.1409	8.936918
376.3078	7.64868
376.4748	8.78447
376.6417	12.84933
376.8087	11.0393
376.9756	13.39692
377.1425	9.323138
377.3094	13.5731
377.4763	12.79984
377.6432	11.62782
377.8102	8.244814
377.9771	10.01139
378.144	10.89627
378.3109	6.567755
378.4777	8.318277
378.6446	8.00146
378.8115	12.18953
378.9784	11.78851
379.1452	9.821067
379.3121	13.39484
379.4789	12.26812
379.6458	10.43374
379.8127	10.48346
379.9795	7.013704
380.1463	10.43592
380.3131	9.093951
380.48	9.380848
380.6468	9.708557
380.8136	11.96711
380.9804	14.51605
381.1472	12.05705
381.314	8.140376
381.4808	12.16407
381.6476	10.33711
381.8144	7.050789
381.9812	11.27896
382.148	12.05975
382.3147	5.595109
382.4815	7.638866
382.6483	8.805562
382.815	7.9965
382.9818	9.019686
383.1485	11.48841
383.3153	9.91843
383.482	7.782577
383.6487	10.45908
383.8155	6.415529
383.9822	7.312636
384.1489	11.36112
384.3156	9.264441
384.4823	13.70197
384.649	11.81035
384.8157	9.3881
384.9824	9.757303
385.1491	10.92763
385.3158	9.806993
385.4825	7.922347
385.6491	11.88124
385.8158	11.03937
385.9825	10.04539
386.1491	7.797922
386.3157	14.18182
386.4824	15.42505
386.649	13.0437
386.8157	4.213777
386.9823	7.094202
387.1489	14.11603
387.3156	12.93331
387.4821	7.249844
387.6488	10.64161
387.8154	9.144232
387.982	8.497087
388.1486	12.77744
388.3152	9.284065
388.4818	9.159002
388.6483	8.211395
388.8149	10.16788
388.9815	12.80346
389.148	7.111318
389.3146	7.721866
389.4811	12.95448
389.6477	14.14619
389.8142	12.04102
389.9808	4.617763
390.1473	10.49811
390.3138	11.73346
390.4804	6.20841
390.6469	8.382207
390.8134	15.03459
390.9799	14.83158
391.1464	10.77046
391.3129	14.4252
391.4794	14.54002
391.6459	11.08045
391.8124	12.01399
391.9789	15.40323
392.1453	11.41336
392.3118	13.47537
392.4782	11.25715
392.6447	13.08086
392.8112	15.50901
392.9776	13.50003
393.144	13.17951
393.3105	12.46797
393.4769	11.63306
393.6433	9.766412
393.8098	7.429494
393.9762	7.022651
394.1426	13.39375
394.309	15.1623
394.4754	12.0989
394.6418	14.87297
394.8082	15.56944
394.9746	14.22466
395.141	14.63269
395.3073	12.23184
395.4737	16.65339
395.64	14.1727
395.8064	16.67259
395.9728	18.59915
396.1391	14.26527
396.3055	9.386801
396.4718	8.381463
396.6381	13.49378
396.8045	12.08452
396.9708	12.56702
397.1371	15.78253
397.3034	12.79832
397.4697	14.40582
397.636	14.6699
397.8023	18.50706
397.9686	15.89091
398.1349	19.86775
398.3012	15.44981
398.4675	14.61271
398.6337	15.36724
398.8	15.05788
398.9662	15.83873
399.1325	15.41916
399.2988	17.54339
399.465	18.70933
399.6313	17.08694
399.7975	20.44003
399.9637	20.29551
400.1299	21.26242
400.2961	18.62918
400.4624	19.70174
400.6286	17.88312
400.7948	16.10375
400.961	18.7959
401.1272	20.46483
401.2934	20.98358
401.4595	19.85687
401.6257	18.60332
401.7919	21.42113
401.9581	18.91296
402.1242	18.05163
402.2904	20.49877
402.4565	16.67782
402.6227	15.94578
402.7888	21.19373
402.955	18.74044
403.1211	13.50839
403.2872	21.2432
403.4533	19.54162
403.6194	18.85423
403.7856	21.59874
403.9517	18.28473
404.1177	17.53388
404.2838	18.63338
404.4499	20.35005
404.616	16.69355
404.7821	19.45527
404.9482	13.61943
405.1142	16.09058
405.2803	21.87356
405.4464	22.55216
405.6124	20.39124
405.7784	17.62317
405.9445	19.63851
406.1105	18.87744
406.2766	18.51789
406.4426	18.3199
406.6086	19.44376
406.7746	22.40744
406.9406	20.13665
407.1066	20.68492
407.2726	25.21121
407.4386	23.13617
407.6046	20.03215
407.7706	18.88585
407.9366	22.80844
408.1025	22.30066
408.2685	24.53533
408.4344	23.79478
408.6004	22.19851
408.7664	25.65636
408.9323	27.91807
409.0983	22.1365
409.2642	23.2775
409.4301	22.81806
409.596	23.42937
409.762	21.50868
409.9279	19.39447
410.0938	20.96126
410.2597	20.89207
410.4256	24.85917
410.5915	22.18909
410.7574	23.64625
410.9232	30.32416
411.0891	28.86543
411.255	23.45519
411.4209	20.90856
411.5867	26.62351
411.7526	25.5492
411.9184	24.14605
412.0843	20.66058
412.2501	22.16414
412.4159	21.69838
412.5818	25.50451
412.7476	23.68934
412.9134	27.54488
413.0792	21.99687
413.245	25.56618
413.4108	24.60141
413.5766	17.20178
413.7424	22.20609
413.9082	24.14281
414.074	26.64941
414.2397	22.20055
414.4055	22.26268
414.5713	24.88637
414.737	23.35855
414.9028	29.0305
415.0685	27.7378
415.2343	25.68634
415.4	27.21685
415.5658	26.10726
415.7315	27.6685
415.8972	31.4429
416.0629	26.51982
416.2286	24.68441
416.3943	24.13282
416.56	23.8728
416.7257	25.15164
416.8914	30.37303
417.0571	26.60692
417.2228	26.82197
417.3884	24.65149
417.5541	27.24511
417.7198	24.18036
417.8854	23.9151
418.0511	24.28865
418.2167	30.31469
418.3824	26.49373
418.548	25.67145
418.7136	28.48154
418.8792	26.35229
419.0449	22.65164
419.2105	24.72716
419.3761	26.59505
419.5417	25.61371
419.7073	26.88878
419.8729	28.51981
420.0385	27.21437
420.204	24.52371
420.3696	26.1754
420.5352	29.33931
420.7007	31.07459
420.8663	32.82929
421.0319	32.70598
421.1974	33.24689
421.3629	33.25336
421.5285	30.03551
421.694	30.07277
421.8595	31.87796
422.0251	30.42576
422.1906	29.56979
422.3561	32.5416
422.5216	27.41235
422.6871	30.79257
422.8526	30.71741
423.0181	27.66856
423.1835	33.38573
423.349	30.06698
423.5145	31.43116
423.68	31.32137
423.8454	32.68009
424.0109	33.52706
424.1763	35.41412
424.3418	35.39429
424.5072	30.73003
424.6726	32.84874
424.838	32.4662
425.0035	28.59942
425.1689	31.10601
425.3343	38.25468
425.4997	34.85271
425.6651	33.19008
425.8305	37.78921
425.9959	33.17493
426.1613	37.93954
426.3267	36.7705
426.492	34.4535
426.6574	33.31092
426.8228	29.20126
426.9881	36.3923
427.1534	31.38078
427.3188	30.74969
427.4841	32.24676
427.6495	29.71968
427.8148	31.17408
427.9801	37.60678
428.1454	37.48144
428.3107	35.67481
428.476	33.20347
428.6414	32.60974
428.8066	36.3926
428.9719	29.49647
429.1372	28.2346
429.3025	35.34057
429.4678	35.40987
429.633	33.79273
429.7983	30.73115
429.9636	26.77196
430.1288	31.09299
430.294	25.69995
430.4593	29.66484
430.6245	27.31487
430.7897	29.73766
430.955	28.82754
431.1202	26.9899
431.2854	31.50345
431.4506	32.65662
431.6158	37.72562
431.781	43.72125
431.9462	42.99451
432.1114	39.86684
432.2766	33.06046
432.4417	31.22992
432.6069	32.859
432.772	37.97118
432.9372	39.07438
433.1024	37.52824
433.2675	42.68093
433.4326	41.0301
433.5977	37.08263
433.7629	32.25364
433.928	32.50479
434.0931	28.78851
434.2582	35.4295
434.4233	43.48376
434.5884	41.94096
434.7535	44.17592
434.9186	42.59072
435.0837	46.20941
435.2488	38.89676
435.4138	38.85144
435.5789	40.50985
435.744	45.94415
435.909	46.98323
436.0741	41.62255
436.2391	43.49438
436.4042	47.37608
436.5692	51.28181
436.7342	48.91903
436.8992	41.45216
437.0643	49.5554
437.2293	52.46392
437.3943	44.78811
437.5593	39.37323
437.7243	41.82784
437.8893	42.53603
438.0542	44.77216
438.2192	39.99582
438.3842	35.82118
438.5491	33.7336
438.7141	37.87225
438.8791	37.41153
439.044	39.73328
439.209	46.38243
439.3739	39.70012
439.5388	42.32235
439.7037	48.95591
439.8687	48.35443
440.0336	45.22802
440.1985	44.41816
440.3634	45.72791
440.5283	44.76366
440.6932	46.08529
440.8581	48.13869
441.0229	45.976
441.1878	46.2555
441.3527	46.27088
441.5175	47.5353
441.6824	46.22106
441.8472	54.09341
442.0121	56.26527
442.1769	55.73258
442.3418	53.64838
442.5066	51.96628
442.6714	48.43523
442.8362	49.84484
443.001	52.56245
443.1659	49.22372
443.3307	50.15517
443.4955	48.52662
443.6602	51.98621
443.825	51.5678
443.9898	51.0162
444.1546	52.15617
444.3193	50.73616
444.4841	50.82825
444.6488	54.73621
444.8136	51.6584
444.9783	53.3616
445.1431	54.40253
445.3078	48.25075
445.4725	43.85696
445.6372	47.23954
445.802	48.40237
445.9667	46.22194
446.1314	44.63534
446.2961	46.4758
446.4608	47.54792
446.6255	54.97663
446.7901	49.43534
446.9548	48.7745
447.1195	50.10271
447.2841	61.13755
447.4488	58.49492
447.6134	60.11472
447.7781	52.8467
447.9427	55.70621
448.1074	56.75526
448.272	60.68763
448.4366	54.69958
448.6012	55.37277
448.7658	54.22587
448.9305	51.90942
449.095	57.20122
449.2596	55.3658
449.4242	53.41636
449.5888	53.98175
449.7534	55.8447
449.9179	62.84222
450.0825	58.53824
450.2471	58.57371
450.4116	59.78882
450.5762	62.08833
450.7407	63.17103
450.9052	61.40733
451.0698	60.68596
451.2343	65.07767
451.3988	59.99673
451.5633	56.30786
451.7278	58.96528
451.8923	64.0901
452.0568	64.09608
452.2213	60.37499
452.3858	64.06929
452.5503	60.88643
452.7148	59.72074
452.8792	57.19664
453.0437	56.69586
453.2081	57.3331
453.3726	57.55594
453.537	60.18613
453.7015	60.19813
453.8659	61.91456
454.0303	60.35455
454.1947	59.34115
454.3592	59.29076
454.5236	59.55444
454.688	61.31709
454.8524	59.23133
455.0168	56.30811
455.1811	63.28335
455.3455	58.75912
455.5099	59.14089
455.6743	61.42262
455.8386	69.53526
456.003	65.84585
456.1673	62.82892
456.3317	63.58597
456.496	62.55546
456.6603	64.90372
456.8246	57.17313
456.989	66.87243
457.1533	63.75145
457.3176	62.96407
457.4819	67.80901
457.6462	66.01713
457.8105	63.95203
457.9748	61.25218
458.1391	61.92072
458.3033	67.08337
458.4676	69.32287
458.6319	63.39386
458.7961	63.24863
458.9604	61.8952
459.1246	64.59087
459.2888	63.15636
459.4531	55.43045
459.6173	60.37197
459.7815	67.55036
459.9457	71.82378
460.11	67.4233
460.2741	67.49556
460.4384	68.7372
460.6025	62.93697
460.7667	68.44024
460.9309	69.64749
461.0951	69.46608
461.2592	67.63565
461.4234	68.61776
461.5876	69.15356
461.7517	69.30751
461.9159	67.63184
462.08	74.56881
462.2441	61.06197
462.4082	65.87101
462.5724	62.14339
462.7365	71.8626
462.9006	67.40849
463.0647	67.04369
463.2288	69.38494
463.3929	69.15047
463.557	64.59347
463.721	68.757
463.8851	67.03527
464.0492	64.67777
464.2132	59.96743
464.3773	62.20456
464.5414	62.1162
464.7054	64.55109
464.8694	60.56121
465.0334	66.10522
465.1975	66.95264
465.3615	66.58064
465.5255	67.76862
465.6895	64.56989
465.8535	71.20883
466.0175	70.76112
466.1815	71.42032
466.3455	65.23289
466.5095	62.36801
466.6734	63.12231
466.8374	64.26634
467.0014	67.56568
467.1653	68.30552
467.3293	61.50257
467.4932	60.25872
467.6571	63.25502
467.8211	68.8485
467.985	69.2887
468.1489	67.22009
468.3128	66.60317
468.4767	73.35172
468.6406	69.18896
468.8045	65.73918
468.9684	74.32128
469.1323	65.83113
469.2962	67.09946
469.46	68.60742
469.6239	72.8793
469.7878	75.15678
469.9516	69.61171
470.1154	63.34444
470.2793	63.00568
470.4431	64.43018
470.607	68.14249
470.7708	63.80523
470.9346	65.10746
471.0984	67.38294
471.2622	69.88602
471.426	70.42467
471.5898	69.84875
471.7536	66.81952
471.9174	72.34608
472.0811	70.5737
472.2449	74.31815
472.4087	73.45568
472.5724	70.46575
472.7362	68.05604
472.8999	70.9539
473.0637	66.79903
473.2274	68.22273
473.3911	70.91314
473.5548	71.43087
473.7185	69.42114
473.8822	70.69091
474.0459	70.27496
474.2096	74.67522
474.3733	70.77045
474.537	66.76651
474.7007	73.09784
474.8643	72.08456
475.028	68.52901
475.1917	72.42422
475.3553	73.82869
475.519	68.7704
475.6826	71.5423
475.8463	77.11729
476.0099	74.01942
476.1735	68.03071
476.3371	68.26922
476.5007	72.88512
476.6643	68.1445
476.8279	69.00607
476.9915	68.59509
477.1551	73.1124
477.3187	74.66442
477.4823	73.25897
477.6458	72.30906
477.8094	75.75929
477.9729	76.68877
478.1365	78.81422
478.3	78.08904
478.4636	73.855
478.6271	71.97175
478.7906	70.36238
478.9541	72.75872
479.1176	71.7579
479.2812	70.89526
479.4447	75.68183
479.6082	81.44595
479.7716	74.58118
479.9351	71.52247
480.0986	72.57169
480.2621	70.92573
480.4255	74.50853
480.589	69.26008
480.7524	72.01575
480.9159	76.78437
481.0793	74.69342
481.2428	71.00622
481.4062	71.59996
481.5696	75.17122
481.733	69.37753
481.8964	77.158
482.0598	78.5297
482.2232	70.88542
482.3866	72.06617
482.55	69.12491
482.7134	70.90202
482.8768	75.08685
483.0401	76.53893
483.2035	75.97945
483.3668	74.65327
483.5302	74.67426
483.6935	76.25851
483.8568	72.67288
484.0202	72.15605
484.1835	77.04433
484.3468	77.08084
484.5101	74.15847
484.6734	69.2399
484.8367	72.86321
485	69.71554
485.1633	70.98087
485.3266	70.61783
485.4899	69.51427
485.6531	68.13878
485.8164	61.25143
485.9796	65.00262
486.1429	57.38088
486.3061	61.81428
486.4694	67.74229
486.6326	70.26208
486.7958	69.85532
486.959	69.01851
487.1223	66.02323
487.2855	67.53137
487.4486	68.15549
487.6118	69.86923
487.775	74.85082
487.9382	72.0312
488.1014	76.81111
488.2646	78.94116
488.4277	72.72977
488.5909	68.89108
488.754	67.38512
488.9171	69.01946
489.0803	67.68764
489.2434	71.83054
489.4066	73.93668
489.5697	83.3222
489.7328	79.37167
489.8959	82.34907
490.059	77.99969
490.2221	79.38683
490.3852	76.03329
490.5482	74.09432
490.7113	76.42735
490.8744	80.02442
491.0374	80.72931
491.2005	75.84209
491.3636	76.79693
491.5266	78.06431
491.6896	80.63234
491.8527	77.87212
492.0157	68.37989
492.1787	66.03534
492.3417	74.45054
492.5047	80.57575
492.6677	78.10854
492.8307	75.42847
492.9937	81.39224
493.1567	79.12471
493.3196	74.24013
493.4826	72.92514
493.6456	74.67735
493.8085	72.76585
493.9715	75.51899
494.1344	78.43089
494.2974	79.82729
494.4603	81.59826
494.6232	75.05239
494.7861	86.06691
494.949	80.89502
495.1119	74.91736
495.2748	81.77771
495.4377	77.58206
495.6006	74.02716
495.7635	75.33855
495.9264	76.97876
496.0892	75.39274
496.2521	77.12078
496.4149	83.58606
496.5778	85.76295
496.7407	85.1692
496.9035	82.33136
497.0663	80.43041
497.2291	81.90195
497.3919	83.32953
497.5547	83.65254
497.7176	83.09682
497.8804	82.76752
498.0432	81.37771
498.2059	79.2319
498.3687	78.66114
498.5315	84.04609
498.6942	82.58826
498.857	82.22167
499.0198	78.95889
499.1825	85.60359
499.3452	84.65072
499.508	83.60122
499.6707	85.39691
499.8334	79.78912
499.9962	80.84398
500.1589	81.96924
500.3216	84.58195
500.4843	78.20849
500.6469	71.28287
500.8096	81.92953
500.9723	89.21641
501.135	86.17791
501.2976	79.58273
501.4603	81.02114
501.623	82.43692
501.7856	81.36726
501.9482	81.40018
502.1109	90.14698
502.2735	90.95302
502.4361	84.71458
502.5987	86.61486
502.7614	87.54459
502.924	90.77578
503.0865	95.98925
503.2491	90.48409
503.4117	88.94073
503.5743	89.46112
503.7368	90.26396
503.8994	87.49255
504.062	81.89767
504.2245	82.46604
504.3871	87.40976
504.5496	89.11607
504.7121	96.13599
504.8746	95.38758
505.0372	95.82722
505.1997	86.84195
505.3622	92.24119
505.5247	91.25299
505.6872	97.79576
505.8497	101.7097
506.0121	102.4018
506.1746	101.3205
506.3371	98.83625
506.4995	96.61098
506.662	98.99946
506.8244	97.46629
506.9869	97.37309
507.1493	97.49178
507.3117	102.3608
507.4742	101.568
507.6366	94.50982
507.799	99.87624
507.9614	98.95872
508.1238	95.70861
508.2862	98.88079
508.4485	102.3797
508.6109	102.8372
508.7733	103.5474
508.9357	105.5131
509.098	101.7934
509.2604	107.1023
509.4227	110.1521
509.5851	105.6841
509.7474	101.0139
509.9097	102.1761
510.072	107.0271
510.2343	114.7036
510.3966	106.3025
510.5589	110.5206
510.7212	109.725
510.8835	110.1767
511.0458	106.9788
511.2081	114.4551
511.3703	115.8365
511.5326	113.4636
511.6949	116.219
511.8571	112.3336
512.0193	111.192
512.1816	112.1077
512.3438	111.8424
512.506	111.5147
512.6682	111.046
512.8304	115.3564
512.9926	115.3792
513.1548	116.8101
513.317	115.3819
513.4792	113.4148
513.6414	121.8563
513.8035	111.3603
513.9657	113.0301
514.1279	113.2446
514.29	113.6974
514.4521	116.6937
514.6143	115.7489
514.7764	118.4443
514.9385	120.9402
515.1006	121.3169
515.2628	122.2602
515.4249	121.5716
515.587	126.3888
515.7491	126.6235
515.9111	126.7356
516.0732	126.2274
516.2353	131.1509
