SPECTRUM DATA FILE
SpectrumCount:	1
PixelCount:	3648
UserName:	ToughBook User
SampleName:	
LightSource:	
Comments:	
DeviceName:	Qwave
DeviceManufacturer:	Broadcom
DeviceSerialNo:	11311

Name:	last spectrum
Date:	2024-05-02T14:41:40.1429371+02:00
ExposureTime:	0.02
TemporalAvg:	1
IntensityUnit:	normalizedCounts
CCDLoadLevel:	0.05395729
Temperature:	30.95038
DiagramColor:	200
ProcessingSteps:	335

Wavelength [nm]	Intensity1
334.421	11.19169
334.5891	8.311473
334.7573	6.766514
334.9254	3.02257
335.0935	7.325859
335.2616	5.447427
335.4297	2.091877
335.5978	8.514024
335.7659	7.990616
335.934	4.062511
336.1021	5.171422
336.2701	8.500695
336.4382	7.469909
336.6063	7.367488
336.7744	7.642413
336.9424	7.407477
337.1105	1.944611
337.2785	6.640396
337.4466	6.058731
337.6146	4.408103
337.7827	6.212487
337.9507	6.21382
338.1187	4.046673
338.2867	3.154323
338.4548	5.039358
338.6228	3.217532
338.7908	5.390408
338.9588	6.519285
339.1268	2.000722
339.2948	6.528798
339.4628	9.254889
339.6308	3.7971
339.7988	4.55673
339.9667	4.702771
340.1347	4.474465
340.3027	9.167622
340.4707	6.324768
340.6386	7.645149
340.8066	5.775003
340.9745	2.952936
341.1425	4.535236
341.3104	5.743217
341.4784	4.573531
341.6463	2.297435
341.8142	6.871433
341.9821	3.808686
342.1501	4.894479
342.318	6.20227
342.4859	7.677354
342.6538	7.948265
342.8217	7.733799
342.9896	8.234632
343.1575	7.223402
343.3254	2.620339
343.4933	4.063947
343.6612	7.848839
343.829	7.320955
343.9969	6.828478
344.1648	11.14408
344.3326	17.51287
344.5005	8.194358
344.6683	9.249328
344.8362	3.503058
345.004	7.158379
345.1719	9.657454
345.3397	5.384596
345.5075	9.610837
345.6754	12.01119
345.8432	2.984702
346.011	6.11456
346.1788	8.320036
346.3466	7.587907
346.5144	0.5409299
346.6822	2.83644
346.85	3.902344
347.0178	8.298463
347.1856	8.873022
347.3534	4.149444
347.5211	5.572536
347.6889	4.130772
347.8567	6.070782
348.0244	10.4203
348.1922	8.809896
348.3599	6.04615
348.5277	3.089715
348.6954	1.035466
348.8632	6.641647
349.0309	6.653551
349.1986	6.995707
349.3663	8.679636
349.5341	4.151573
349.7018	8.039356
349.8695	8.158461
350.0372	6.548738
350.2049	7.11783
350.3726	7.80106
350.5403	9.21173
350.7079	7.16913
350.8756	6.165092
351.0433	11.00624
351.211	5.852271
351.3786	6.190991
351.5463	2.993117
351.714	3.918505
351.8816	6.760816
352.0493	7.214935
352.2169	7.380017
352.3846	6.269344
352.5522	10.37382
352.7198	3.560271
352.8875	5.309439
353.0551	5.998524
353.2227	7.250282
353.3903	13.16925
353.5579	5.867683
353.7255	3.273073
353.8931	3.154022
354.0607	9.903915
354.2283	6.310825
354.3958	9.099861
354.5634	6.412072
354.731	9.676643
354.8986	6.689051
355.0661	5.994995
355.2337	7.584449
355.4012	9.563101
355.5688	6.956212
355.7363	2.604101
355.9039	5.077886
356.0714	6.871111
356.239	7.673421
356.4065	8.766568
356.574	4.116399
356.7415	6.499767
356.909	7.410717
357.0765	5.576423
357.244	3.000735
357.4115	6.694889
357.579	8.808999
357.7465	5.670778
357.914	3.690058
358.0815	9.605693
358.249	11.24783
358.4164	3.337957
358.5839	5.313594
358.7513	3.397939
358.9188	3.893291
359.0862	4.40337
359.2537	1.48552
359.4211	5.08055
359.5886	4.132938
359.756	8.41837
359.9234	8.969816
360.0909	9.99946
360.2583	5.34586
360.4257	5.470179
360.5931	3.853256
360.7605	8.55301
360.9279	9.949224
361.0953	7.191266
361.2627	7.968431
361.4301	6.722193
361.5974	8.283953
361.7648	4.29137
361.9322	8.873384
362.0995	6.302968
362.2669	8.100015
362.4343	15.15079
362.6016	2.012185
362.769	7.053727
362.9363	10.07214
363.1036	9.638434
363.271	5.901635
363.4383	6.824929
363.6056	9.982189
363.7729	7.297593
363.9402	7.367498
364.1075	5.991601
364.2748	5.172559
364.4421	7.876362
364.6094	7.196192
364.7767	3.99233
364.944	5.172608
365.1113	10.44152
365.2786	11.40037
365.4458	8.661103
365.6131	5.435762
365.7803	8.828197
365.9476	8.550942
366.1148	8.158301
366.2821	11.78085
366.4493	4.296084
366.6166	5.497625
366.7838	7.185143
366.951	6.197001
367.1182	2.906533
367.2855	3.733943
367.4527	11.24833
367.6199	9.808462
367.7871	13.93996
367.9543	7.775491
368.1215	6.512282
368.2886	9.136822
368.4558	7.528085
368.623	8.151126
368.7902	9.334173
368.9573	8.244985
369.1245	11.88948
369.2917	8.131398
369.4588	6.674829
369.6259	7.351468
369.7931	8.740891
369.9602	9.816721
370.1274	13.08951
370.2945	10.17352
370.4616	9.135829
370.6287	5.512211
370.7958	12.28915
370.963	9.629574
371.1301	10.445
371.2971	10.73934
371.4643	10.25449
371.6313	10.68558
371.7984	9.71976
371.9655	8.638807
372.1326	3.436311
372.2997	6.552234
372.4667	7.358573
372.6338	10.98502
372.8008	10.22729
372.9679	10.86471
373.1349	7.443798
373.3019	4.392941
373.469	10.01817
373.636	13.37127
373.803	12.71951
373.9701	10.67702
374.1371	7.170415
374.3041	8.09724
374.4711	9.860914
374.6381	11.20674
374.8051	13.18802
374.9721	11.24762
375.1391	8.511326
375.3061	11.81511
375.473	14.00781
375.64	14.91813
375.8069	10.20339
375.9739	11.96284
376.1409	5.648981
376.3078	5.309394
376.4748	6.548728
376.6417	10.8583
376.8087	13.14805
376.9756	11.30003
377.1425	8.741368
377.3094	12.32706
377.4763	7.937783
377.6432	14.3258
377.8102	14.50387
377.9771	9.610308
378.144	10.05272
378.3109	13.79624
378.4777	13.87822
378.6446	11.37455
378.8115	12.55681
378.9784	12.19219
379.1452	9.215601
379.3121	10.0113
379.4789	7.966682
379.6458	9.853798
379.8127	10.70279
379.9795	6.497196
380.1463	7.41469
380.3131	9.387066
380.48	9.182994
380.6468	11.20683
380.8136	8.766067
380.9804	6.960959
381.1472	8.041348
381.314	8.981533
381.4808	7.868969
381.6476	10.50363
381.8144	6.610987
381.9812	8.634998
382.148	13.14828
382.3147	10.86385
382.4815	8.968276
382.6483	7.706193
382.815	8.288931
382.9818	9.688842
383.1485	11.3588
383.3153	7.843859
383.482	8.049591
383.6487	6.421707
383.8155	10.78128
383.9822	12.00467
384.1489	15.2752
384.3156	13.54728
384.4823	9.606291
384.649	15.47247
384.8157	5.924679
384.9824	8.132735
385.1491	12.57985
385.3158	13.34241
385.4825	12.04189
385.6491	11.23833
385.8158	17.43767
385.9825	15.54879
386.1491	8.089178
386.3157	11.07119
386.4824	14.65057
386.649	13.91795
386.8157	9.306251
386.9823	10.01965
387.1489	13.42828
387.3156	9.274572
387.4821	11.02916
387.6488	15.25891
387.8154	14.31818
387.982	9.914403
388.1486	14.42096
388.3152	12.1031
388.4818	8.668991
388.6483	10.43976
388.8149	13.50127
388.9815	9.2718
389.148	12.11627
389.3146	15.16529
389.4811	13.18357
389.6477	16.41411
389.8142	12.86446
389.9808	10.87868
390.1473	14.08885
390.3138	13.88288
390.4804	12.62801
390.6469	9.940406
390.8134	12.7053
390.9799	10.14529
391.1464	16.11256
391.3129	12.6168
391.4794	16.18438
391.6459	12.94702
391.8124	12.87538
391.9789	12.30766
392.1453	13.59817
392.3118	13.65375
392.4782	12.02416
392.6447	13.02464
392.8112	13.36108
392.9776	9.097352
393.144	4.993918
393.3105	8.599985
393.4769	9.15773
393.6433	2.848701
393.8098	6.620376
393.9762	8.82838
394.1426	11.74587
394.309	15.60038
394.4754	16.69854
394.6418	18.29729
394.8082	15.04738
394.9746	13.80819
395.141	15.79977
395.3073	16.7057
395.4737	14.983
395.64	11.21143
395.8064	13.39289
395.9728	13.66413
396.1391	11.77345
396.3055	15.05079
396.4718	14.06211
396.6381	12.82849
396.8045	14.73973
396.9708	14.89612
397.1371	10.28155
397.3034	14.02102
397.4697	16.03851
397.636	12.87702
397.8023	16.5199
397.9686	16.51578
398.1349	20.91078
398.3012	19.44641
398.4675	20.1728
398.6337	11.84368
398.8	19.11828
398.9662	20.88749
399.1325	15.62409
399.2988	21.46079
399.465	21.21949
399.6313	23.22073
399.7975	19.29453
399.9637	19.52015
400.1299	18.08033
400.2961	16.44787
400.4624	19.10176
400.6286	22.54814
400.7948	17.37889
400.961	16.95115
401.1272	16.12801
401.2934	21.0399
401.4595	21.47015
401.6257	19.77657
401.7919	18.50475
401.9581	17.58682
402.1242	16.66784
402.2904	19.55353
402.4565	18.83646
402.6227	18.65554
402.7888	16.43313
402.955	16.22934
403.1211	16.72487
403.2872	18.30221
403.4533	19.22952
403.6194	21.50203
403.7856	17.72963
403.9517	18.02976
404.1177	23.3732
404.2838	20.90542
404.4499	18.61337
404.616	19.73553
404.7821	18.5231
404.9482	21.95033
405.1142	21.44884
405.2803	19.2339
405.4464	19.84733
405.6124	18.14627
405.7784	22.87383
405.9445	25.43877
406.1105	16.46048
406.2766	17.91062
406.4426	17.08598
406.6086	21.15245
406.7746	21.00215
406.9406	21.80042
407.1066	22.98007
407.2726	20.5001
407.4386	18.55759
407.6046	20.38729
407.7706	21.72072
407.9366	22.02789
408.1025	25.29215
408.2685	23.68827
408.4344	22.03443
408.6004	22.5742
408.7664	24.18104
408.9323	23.93047
409.0983	28.64198
409.2642	23.43821
409.4301	24.12803
409.596	21.6401
409.762	20.24006
409.9279	20.30137
410.0938	25.28816
410.2597	23.523
410.4256	24.7966
410.5915	25.16344
410.7574	27.34283
410.9232	21.61948
411.0891	20.47367
411.255	24.33934
411.4209	23.73108
411.5867	29.78876
411.7526	29.25043
411.9184	24.68747
412.0843	26.94616
412.2501	27.23646
412.4159	25.34097
412.5818	28.52079
412.7476	26.8408
412.9134	28.41218
413.0792	31.21361
413.245	25.65917
413.4108	28.55093
413.5766	26.68064
413.7424	29.63682
413.9082	27.20933
414.074	27.33666
414.2397	24.91326
414.4055	25.48825
414.5713	25.71795
414.737	29.32747
414.9028	28.43704
415.0685	24.47281
415.2343	27.07214
415.4	26.45952
415.5658	23.44502
415.7315	23.24717
415.8972	24.73649
416.0629	25.79675
416.2286	30.19221
416.3943	33.80968
416.56	31.99896
416.7257	30.43707
416.8914	29.43536
417.0571	26.69898
417.2228	26.18077
417.3884	28.6207
417.5541	30.45533
417.7198	26.15426
417.8854	28.57107
418.0511	31.903
418.2167	30.30592
418.3824	28.76055
418.548	26.15223
418.7136	24.43873
418.8792	26.94022
419.0449	31.22331
419.2105	33.16348
419.3761	31.7874
419.5417	28.23074
419.7073	31.22787
419.8729	29.76197
420.0385	29.76121
420.204	31.54323
420.3696	29.36121
420.5352	34.35858
420.7007	32.71362
420.8663	37.60815
421.0319	36.05341
421.1974	34.62685
421.3629	35.26672
421.5285	32.90044
421.694	31.08543
421.8595	28.20726
422.0251	31.1629
422.1906	31.02733
422.3561	32.76169
422.5216	31.59508
422.6871	29.01593
422.8526	28.53584
423.0181	30.34036
423.1835	33.35928
423.349	37.65276
423.5145	40.69205
423.68	32.28077
423.8454	32.73768
424.0109	32.22086
424.1763	32.8614
424.3418	36.27899
424.5072	39.89123
424.6726	36.27858
424.838	35.46526
425.0035	37.04409
425.1689	36.87517
425.3343	34.40071
425.4997	36.44687
425.6651	36.36834
425.8305	37.43314
425.9959	35.55938
426.1613	32.70171
426.3267	40.39329
426.492	44.176
426.6574	38.23571
426.8228	34.99579
426.9881	36.03042
427.1534	28.52849
427.3188	34.45939
427.4841	35.06361
427.6495	40.25149
427.8148	36.98296
427.9801	35.0175
428.1454	43.77477
428.3107	38.4753
428.476	37.83207
428.6414	41.59249
428.8066	36.37352
428.9719	33.87053
429.1372	29.65263
429.3025	35.04987
429.4678	32.80474
429.633	32.32057
429.7983	33.43278
429.9636	31.88706
430.1288	29.92905
430.294	30.73185
430.4593	28.86507
430.6245	31.09645
430.7897	28.89485
430.955	27.07672
431.1202	29.48693
431.2854	28.96471
431.4506	34.06994
431.6158	42.45032
431.781	43.09135
431.9462	44.39444
432.1114	41.48161
432.2766	38.65284
432.4417	31.83502
432.6069	34.70585
432.772	37.63683
432.9372	42.76285
433.1024	41.81954
433.2675	44.84813
433.4326	48.14749
433.5977	44.83588
433.7629	37.96265
433.928	40.40311
434.0931	33.84681
434.2582	32.73059
434.4233	34.66335
434.5884	42.03352
434.7535	42.84914
434.9186	45.23199
435.0837	43.56971
435.2488	45.23329
435.4138	42.37079
435.5789	40.15793
435.744	40.79184
435.909	45.24125
436.0741	47.62463
436.2391	44.4758
436.4042	44.8763
436.5692	48.47806
436.7342	48.1769
436.8992	41.15249
437.0643	50.62273
437.2293	51.1715
437.3943	41.83484
437.5593	42.26768
437.7243	40.92449
437.8893	45.42312
438.0542	48.55716
438.2192	44.0503
438.3842	36.84207
438.5491	41.00856
438.7141	45.06548
438.8791	45.82927
439.044	44.96935
439.209	45.41686
439.3739	50.52822
439.5388	48.09315
439.7037	49.45602
439.8687	48.71597
440.0336	52.57141
440.1985	50.32146
440.3634	48.70086
440.5283	47.08585
440.6932	43.22136
440.8581	51.18173
441.0229	48.27138
441.1878	49.70364
441.3527	53.0252
441.5175	53.64394
441.6824	51.78001
441.8472	48.77343
442.0121	49.91556
442.1769	53.2808
442.3418	46.36617
442.5066	49.32151
442.6714	53.90445
442.8362	61.30808
443.001	59.56709
443.1659	53.07273
443.3307	55.33022
443.4955	54.65744
443.6602	52.54752
443.825	57.33871
443.9898	53.10417
444.1546	53.47942
444.3193	56.35894
444.4841	54.26375
444.6488	60.62742
444.8136	57.15397
444.9783	54.05516
445.1431	55.3706
445.3078	56.54485
445.4725	49.64443
445.6372	49.85019
445.802	53.98005
445.9667	52.78254
446.1314	52.1183
446.2961	50.78072
446.4608	53.60786
446.6255	51.61269
446.7901	55.23881
446.9548	54.71294
447.1195	52.76345
447.2841	61.10452
447.4488	62.4225
447.6134	61.23521
447.7781	59.34345
447.9427	53.5146
448.1074	53.96043
448.272	59.22638
448.4366	58.11627
448.6012	63.39963
448.7658	57.58675
448.9305	55.01554
449.095	60.03195
449.2596	58.8593
449.4242	60.83457
449.5888	60.90367
449.7534	56.47713
449.9179	62.679
450.0825	59.91001
450.2471	60.30091
450.4116	61.07354
450.5762	60.96494
450.7407	66.61098
450.9052	70.15392
451.0698	67.60141
451.2343	67.48731
451.3988	67.70457
451.5633	64.03856
451.7278	67.78342
451.8923	66.45281
452.0568	63.83989
452.2213	64.71229
452.3858	66.67387
452.5503	60.70731
452.7148	58.70177
452.8792	64.11092
453.0437	63.55692
453.2081	59.64487
453.3726	65.53457
453.537	63.43021
453.7015	65.68069
453.8659	69.10019
454.0303	67.47954
454.1947	69.81727
454.3592	68.82342
454.5236	68.58871
454.688	66.98438
454.8524	68.57581
455.0168	68.5544
455.1811	64.94929
455.3455	68.32534
455.5099	66.55684
455.6743	71.20734
455.8386	67.56388
456.003	65.76551
456.1673	66.01616
456.3317	69.06161
456.496	66.09341
456.6603	66.41785
456.8246	74.91472
456.989	68.39788
457.1533	60.65928
457.3176	69.42019
457.4819	69.03764
457.6462	70.20218
457.8105	68.95706
457.9748	66.62153
458.1391	67.13441
458.3033	64.27644
458.4676	64.52549
458.6319	64.35685
458.7961	74.03743
458.9604	73.78999
459.1246	68.0649
459.2888	68.28822
459.4531	66.87822
459.6173	63.45045
459.7815	66.27467
459.9457	66.97865
460.11	68.18337
460.2741	70.62868
460.4384	68.09675
460.6025	70.82024
460.7667	70.18174
460.9309	68.15046
461.0951	70.44865
461.2592	73.15784
461.4234	73.21954
461.5876	71.86724
461.7517	71.84019
461.9159	74.07207
462.08	72.73602
462.2441	68.86103
462.4082	69.51907
462.5724	73.12429
462.7365	72.07136
462.9006	71.42584
463.0647	70.16854
463.2288	74.91191
463.3929	75.14005
463.557	78.98536
463.721	72.23771
463.8851	71.02361
464.0492	71.54308
464.2132	67.81794
464.3773	77.07726
464.5414	72.4996
464.7054	72.46344
464.8694	69.6619
465.0334	67.42625
465.1975	73.24367
465.3615	75.84506
465.5255	69.69536
465.6895	74.98181
465.8535	76.61442
466.0175	70.17887
466.1815	71.03127
466.3455	74.05715
466.5095	70.59483
466.6734	68.04825
466.8374	70.69083
467.0014	68.68631
467.1653	74.05192
467.3293	73.15952
467.4932	73.64734
467.6571	73.26453
467.8211	75.0317
467.985	70.89218
468.1489	76.43488
468.3128	71.11829
468.4767	78.53651
468.6406	77.90038
468.8045	79.0526
468.9684	72.61246
469.1323	71.79019
469.2962	72.05207
469.46	72.23509
469.6239	73.5468
469.7878	75.811
469.9516	71.31029
470.1154	72.24464
470.2793	71.65897
470.4431	73.38739
470.607	70.08118
470.7708	67.59026
470.9346	71.95718
471.0984	74.27695
471.2622	73.00029
471.426	73.2774
471.5898	74.99057
471.7536	76.75273
471.9174	82.91111
472.0811	88.12579
472.2449	82.07256
472.4087	81.34627
472.5724	83.71203
472.7362	77.87709
472.8999	76.25408
473.0637	72.72881
473.2274	73.78239
473.3911	73.92205
473.5548	73.95438
473.7185	78.86183
473.8822	79.77977
474.0459	76.72772
474.2096	80.22887
474.3733	82.48878
474.537	81.34109
474.7007	79.49686
474.8643	76.2996
475.028	77.76917
475.1917	78.15884
475.3553	75.76951
475.519	74.94695
475.6826	77.08558
475.8463	73.46976
476.0099	80.72181
476.1735	76.14172
476.3371	75.12627
476.5007	76.52274
476.6643	78.42458
476.8279	79.11158
476.9915	83.54186
477.1551	78.49041
477.3187	75.53242
477.4823	83.51012
477.6458	83.02412
477.8094	73.73653
477.9729	75.72858
478.1365	81.76367
478.3	80.82364
478.4636	83.71879
478.6271	78.86334
478.7906	78.24267
478.9541	82.21381
479.1176	78.03274
479.2812	87.03075
479.4447	86.58784
479.6082	84.79252
479.7716	82.28201
479.9351	79.70605
480.0986	79.27554
480.2621	79.56683
480.4255	78.15688
480.589	80.74183
480.7524	74.58809
480.9159	73.04305
481.0793	76.458
481.2428	79.27847
481.4062	78.51397
481.5696	81.53385
481.733	79.11776
481.8964	81.40808
482.0598	82.17484
482.2232	73.72119
482.3866	77.85511
482.55	78.20811
482.7134	82.85326
482.8768	81.86466
483.0401	80.48354
483.2035	76.80652
483.3668	79.59503
483.5302	85.18636
483.6935	80.53909
483.8568	79.72589
484.0202	74.90058
484.1835	75.9007
484.3468	78.85861
484.5101	79.38903
484.6734	76.77177
484.8367	82.25008
485	83.3562
485.1633	84.55798
485.3266	86.89647
485.4899	77.30789
485.6531	73.45711
485.8164	72.7892
485.9796	68.70154
486.1429	64.32817
486.3061	68.73196
486.4694	69.80412
486.6326	74.14189
486.7958	77.44189
486.959	78.91776
487.1223	77.84689
487.2855	78.55959
487.4486	71.80112
487.6118	80.54193
487.775	84.40095
487.9382	87.62124
488.1014	85.95311
488.2646	78.19121
488.4277	81.66341
488.5909	81.8913
488.754	79.99655
488.9171	80.8209
489.0803	78.44018
489.2434	79.14117
489.4066	83.62802
489.5697	84.33288
489.7328	90.10125
489.8959	87.07431
490.059	81.49329
490.2221	82.29046
490.3852	85.61667
490.5482	93.02254
490.7113	88.25223
490.8744	84.67659
491.0374	84.63824
491.2005	84.85498
491.3636	82.35984
491.5266	81.52537
491.6896	80.08372
491.8527	79.13567
492.0157	79.10001
492.1787	76.16399
492.3417	80.87144
492.5047	82.13142
492.6677	82.11304
492.8307	79.99107
492.9937	82.86232
493.1567	82.75734
493.3196	83.81949
493.4826	84.60365
493.6456	81.35173
493.8085	86.57587
493.9715	81.51639
494.1344	85.25329
494.2974	89.71619
494.4603	86.6455
494.6232	88.04594
494.7861	84.44681
494.949	89.08576
495.1119	85.19717
495.2748	89.63701
495.4377	91.14722
495.6006	88.72587
495.7635	86.55544
495.9264	84.24542
496.0892	81.88867
496.2521	84.4062
496.4149	91.74864
496.5778	90.51414
496.7407	89.71432
496.9035	87.25124
497.0663	84.85772
497.2291	90.98734
497.3919	96.71503
497.5547	91.84871
497.7176	92.6897
497.8804	92.05905
498.0432	86.76986
498.2059	92.38284
498.3687	83.84203
498.5315	87.44593
498.6942	89.67082
498.857	87.36745
499.0198	95.79235
499.1825	94.66772
499.3452	97.73577
499.508	91.99387
499.6707	91.94529
499.8334	95.64543
499.9962	90.80516
500.1589	86.32643
500.3216	90.88747
500.4843	93.71707
500.6469	94.01824
500.8096	89.64191
500.9723	96.26046
501.135	95.83359
501.2976	97.08871
501.4603	84.83997
501.623	88.51519
501.7856	97.98087
501.9482	101.0751
502.1109	93.77866
502.2735	92.49973
502.4361	92.29936
502.5987	93.94397
502.7614	94.00188
502.924	95.25585
503.0865	100.1745
503.2491	102.939
503.4117	98.19666
503.5743	94.02837
503.7368	94.64288
503.8994	95.56266
504.062	95.73655
504.2245	89.28174
504.3871	101.1322
504.5496	95.49266
504.7121	97.39624
504.8746	95.72031
505.0372	97.65832
505.1997	104.7488
505.3622	100.692
505.5247	107.9006
505.6872	107.7888
505.8497	109.8585
506.0121	108.4771
506.1746	113.184
506.3371	113.6939
506.4995	110.0271
506.662	107.6071
506.8244	109.2806
506.9869	107.1648
507.1493	116.4455
507.3117	116.7279
507.4742	111.5609
507.6366	107.3948
507.799	103.0666
507.9614	100.366
508.1238	105.9054
508.2862	103.288
508.4485	107.8575
508.6109	117.0696
508.7733	114.1081
508.9357	113.4553
509.098	117.3095
509.2604	120.0646
509.4227	117.131
509.5851	117.9948
509.7474	120.6128
509.9097	115.9838
510.072	113.062
510.2343	113.7076
510.3966	121.3513
510.5589	120.3272
510.7212	118.2942
510.8835	116.0107
511.0458	115.9122
511.2081	121.7938
511.3703	129.4469
511.5326	124.6558
511.6949	129.3182
511.8571	133.939
512.0193	132.2556
512.1816	129.3281
512.3438	127.1654
512.506	124.9669
512.6682	124.5609
512.8304	124.3667
512.9926	123.9996
513.1548	128.9622
513.317	134.9393
513.4792	130.5862
513.6414	127.87
513.8035	120.1219
513.9657	127.5026
514.1279	130.9384
514.29	131.2014
514.4521	130.567
514.6143	124.6216
514.7764	125.8525
514.9385	133.6973
515.1006	138.727
515.2628	132.1246
515.4249	129.7438
515.587	132.7789
515.7491	130.8237
515.9111	132.4245
516.0732	135.0678
516.2353	139.91
