SPECTRUM DATA FILE
SpectrumCount:	1
PixelCount:	3648
UserName:	ToughBook User
SampleName:	
LightSource:	
Comments:	
DeviceName:	Qwave
DeviceManufacturer:	Broadcom
DeviceSerialNo:	11311

Name:	last spectrum
Date:	2024-05-02T14:42:37.6818742+02:00
ExposureTime:	0.02
TemporalAvg:	1
IntensityUnit:	normalizedCounts
CCDLoadLevel:	0.04871854
Temperature:	31.16721
DiagramColor:	200
ProcessingSteps:	335

Wavelength [nm]	Intensity1
334.421	9.03078
334.5891	5.870246
334.7573	3.419277
334.9254	5.827379
335.0935	8.265917
335.2616	4.886721
335.4297	3.91937
335.5978	5.48399
335.7659	4.238426
335.934	4.152259
336.1021	11.09695
336.2701	9.121262
336.4382	11.41783
336.6063	7.935627
336.7744	3.738775
336.9424	5.520888
337.1105	7.709137
337.2785	6.755089
337.4466	8.554962
337.6146	9.567537
337.7827	8.649753
337.9507	9.026875
338.1187	6.450407
338.2867	6.880575
338.4548	5.419504
338.6228	4.233181
338.7908	5.669831
338.9588	4.293022
339.1268	4.410615
339.2948	10.83763
339.4628	8.369234
339.6308	4.375438
339.7988	5.23057
339.9667	7.192331
340.1347	7.897964
340.3027	4.749642
340.4707	7.373831
340.6386	5.544702
340.8066	4.146488
340.9745	6.269586
341.1425	7.536252
341.3104	7.802006
341.4784	6.071725
341.6463	2.351069
341.8142	8.757261
341.9821	9.680589
342.1501	5.363681
342.318	7.457032
342.4859	4.919845
342.6538	8.459391
342.8217	8.106242
342.9896	9.614544
343.1575	6.086884
343.3254	6.917094
343.4933	3.648042
343.6612	7.850418
343.829	6.912736
343.9969	11.35601
344.1648	9.58259
344.3326	5.841555
344.5005	7.227558
344.6683	3.238436
344.8362	6.906971
345.004	7.574508
345.1719	5.557385
345.3397	7.479395
345.5075	10.11192
345.6754	7.301121
345.8432	9.588596
346.011	5.0499
346.1788	7.13873
346.3466	9.184725
346.5144	8.36442
346.6822	7.030555
346.85	8.454203
347.0178	6.271045
347.1856	5.036101
347.3534	7.297814
347.5211	5.340209
347.6889	4.419149
347.8567	6.635354
348.0244	7.794481
348.1922	5.246874
348.3599	10.25562
348.5277	4.858293
348.6954	5.692196
348.8632	3.929587
349.0309	10.93839
349.1986	6.949233
349.3663	3.114737
349.5341	5.87442
349.7018	4.63074
349.8695	4.502305
350.0372	4.309129
350.2049	7.36082
350.3726	8.444582
350.5403	10.97209
350.7079	9.822962
350.8756	6.670766
351.0433	8.45479
351.211	9.873671
351.3786	8.128409
351.5463	7.73449
351.714	9.365495
351.8816	10.55903
352.0493	9.412975
352.2169	6.758519
352.3846	6.333104
352.5522	12.93582
352.7198	4.745143
352.8875	5.583583
353.0551	9.733298
353.2227	6.651799
353.3903	9.87063
353.5579	8.196161
353.7255	5.294384
353.8931	7.22101
354.0607	4.23264
354.2283	11.63335
354.3958	14.9611
354.5634	8.864779
354.731	9.661107
354.8986	4.722978
355.0661	5.596197
355.2337	6.358579
355.4012	11.63138
355.5688	12.6801
355.7363	9.441414
355.9039	7.896877
356.0714	8.666817
356.239	7.646451
356.4065	6.320135
356.574	9.779181
356.7415	3.218935
356.909	9.283098
357.0765	9.923609
357.244	4.144751
357.4115	9.007013
357.579	6.487348
357.7465	7.688022
357.914	4.135869
358.0815	4.030486
358.249	5.894975
358.4164	7.800733
358.5839	5.405162
358.7513	4.147263
358.9188	5.755163
359.0862	3.999241
359.2537	11.38059
359.4211	9.839782
359.5886	8.491291
359.756	8.945828
359.9234	7.84587
360.0909	10.54741
360.2583	11.62844
360.4257	8.146318
360.5931	0.261444
360.7605	4.363604
360.9279	7.689804
361.0953	8.722118
361.2627	6.656554
361.4301	9.465436
361.5974	8.546388
361.7648	7.799302
361.9322	11.88167
362.0995	10.60604
362.2669	10.46575
362.4343	12.754
362.6016	8.692286
362.769	7.742474
362.9363	5.866872
363.1036	6.843232
363.271	6.583084
363.4383	6.903687
363.6056	10.384
363.7729	6.992249
363.9402	6.046698
364.1075	12.39307
364.2748	7.541759
364.4421	11.15866
364.6094	10.27333
364.7767	9.456225
364.944	8.025126
365.1113	7.78179
365.2786	10.48551
365.4458	9.754314
365.6131	9.48629
365.7803	9.816216
365.9476	11.64708
366.1148	13.59152
366.2821	11.94554
366.4493	12.87012
366.6166	13.61144
366.7838	11.7292
366.951	13.15924
367.1182	7.995082
367.2855	10.16942
367.4527	9.506649
367.6199	9.39255
367.7871	13.12766
367.9543	9.39972
368.1215	5.752721
368.2886	8.760993
368.4558	7.440717
368.623	5.997786
368.7902	9.882242
368.9573	12.7261
369.1245	12.24564
369.2917	9.247043
369.4588	6.306237
369.6259	8.723143
369.7931	10.20403
369.9602	9.945559
370.1274	6.486169
370.2945	5.542794
370.4616	7.432286
370.6287	9.956867
370.7958	6.511269
370.963	8.255052
371.1301	10.93233
371.2971	15.42285
371.4643	9.951212
371.6313	9.781275
371.7984	13.03581
371.9655	7.342526
372.1326	11.5247
372.2997	9.667008
372.4667	11.49285
372.6338	15.19151
372.8008	13.73481
372.9679	10.62301
373.1349	12.22528
373.3019	12.11287
373.469	11.59193
373.636	11.25489
373.803	11.32261
373.9701	12.04394
374.1371	13.41189
374.3041	13.07664
374.4711	9.302102
374.6381	10.85736
374.8051	3.191789
374.9721	6.251921
375.1391	8.069234
375.3061	13.05303
375.473	14.71454
375.64	12.5778
375.8069	11.73583
375.9739	7.044032
376.1409	10.41402
376.3078	9.946463
376.4748	6.823442
376.6417	10.31839
376.8087	8.11543
376.9756	5.502734
377.1425	10.46142
377.3094	11.51745
377.4763	11.81108
377.6432	12.64586
377.8102	9.407005
377.9771	11.38623
378.144	10.3267
378.3109	11.26868
378.4777	12.49516
378.6446	8.314819
378.8115	12.17666
378.9784	9.464914
379.1452	13.09807
379.3121	14.24449
379.4789	14.31694
379.6458	12.49516
379.8127	14.4248
379.9795	10.49949
380.1463	12.39843
380.3131	15.09822
380.48	14.07095
380.6468	12.71931
380.8136	12.92252
380.9804	14.65633
381.1472	15.28073
381.314	13.08374
381.4808	10.3911
381.6476	7.675876
381.8144	12.5973
381.9812	13.82343
382.148	11.99962
382.3147	9.974967
382.4815	11.85358
382.6483	10.15121
382.815	8.852242
382.9818	11.40764
383.1485	6.79794
383.3153	5.362356
383.482	6.867722
383.6487	9.814518
383.8155	6.528036
383.9822	11.38996
384.1489	9.981338
384.3156	13.51138
384.4823	15.53803
384.649	15.5548
384.8157	8.01685
384.9824	14.99168
385.1491	12.76789
385.3158	12.59777
385.4825	11.82159
385.6491	10.54311
385.8158	7.14156
385.9825	4.618179
386.1491	10.03127
386.3157	18.90199
386.4824	14.02718
386.649	11.21515
386.8157	14.33517
386.9823	13.49963
387.1489	13.40954
387.3156	12.78282
387.4821	14.82684
387.6488	13.9839
387.8154	15.07258
387.982	12.64593
388.1486	11.52508
388.3152	12.06683
388.4818	11.89063
388.6483	15.35649
388.8149	10.57752
388.9815	9.641739
389.148	14.89057
389.3146	11.48729
389.4811	11.48623
389.6477	9.836609
389.8142	11.276
389.9808	12.81315
390.1473	17.79066
390.3138	13.30684
390.4804	12.31266
390.6469	10.96565
390.8134	12.00689
390.9799	17.35328
391.1464	16.3828
391.3129	12.3295
391.4794	10.96761
391.6459	13.71833
391.8124	18.04077
391.9789	21.71581
392.1453	19.33755
392.3118	11.01891
392.4782	11.18398
392.6447	15.07667
392.8112	12.12016
392.9776	11.64682
393.144	9.897315
393.3105	7.917391
393.4769	9.14899
393.6433	13.05165
393.8098	12.06699
393.9762	16.21557
394.1426	13.80391
394.309	15.93195
394.4754	10.67921
394.6418	12.74486
394.8082	17.41546
394.9746	14.37069
395.141	17.47171
395.3073	16.88236
395.4737	13.46092
395.64	12.79899
395.8064	16.75471
395.9728	15.47095
396.1391	13.58843
396.3055	14.49274
396.4718	14.59203
396.6381	11.76568
396.8045	12.32356
396.9708	10.61188
397.1371	9.228136
397.3034	10.04954
397.4697	19.96981
397.636	18.71812
397.8023	16.19957
397.9686	17.55342
398.1349	18.18683
398.3012	15.79706
398.4675	13.47991
398.6337	20.05393
398.8	20.875
398.9662	17.47067
399.1325	20.39337
399.2988	23.37625
399.465	20.90863
399.6313	20.88099
399.7975	20.64451
399.9637	20.84453
400.1299	22.21962
400.2961	21.35765
400.4624	18.99083
400.6286	19.40993
400.7948	22.85052
400.961	19.71673
401.1272	18.59161
401.2934	23.87772
401.4595	24.69446
401.6257	23.06165
401.7919	22.48937
401.9581	22.04595
402.1242	22.63774
402.2904	24.93307
402.4565	21.50649
402.6227	17.79463
402.7888	22.3613
402.955	19.12923
403.1211	15.69482
403.2872	15.47986
403.4533	21.00099
403.6194	20.41468
403.7856	21.9703
403.9517	25.29637
404.1177	22.43062
404.2838	19.86443
404.4499	24.03317
404.616	23.85755
404.7821	24.46942
404.9482	24.15432
405.1142	20.23526
405.2803	22.44864
405.4464	20.741
405.6124	24.01943
405.7784	20.4682
405.9445	23.18851
406.1105	22.64722
406.2766	21.15055
406.4426	23.32573
406.6086	20.74897
406.7746	20.57777
406.9406	23.88853
407.1066	28.524
407.2726	26.94036
407.4386	26.40439
407.6046	24.63333
407.7706	23.34155
407.9366	23.00169
408.1025	21.61546
408.2685	22.86784
408.4344	25.21341
408.6004	27.66558
408.7664	23.04744
408.9323	28.8726
409.0983	28.30124
409.2642	24.74065
409.4301	26.86993
409.596	29.8603
409.762	28.1718
409.9279	21.94725
410.0938	26.19601
410.2597	22.56816
410.4256	28.01318
410.5915	26.73167
410.7574	25.85722
410.9232	28.22459
411.0891	27.71571
411.255	25.68441
411.4209	29.32917
411.5867	28.64029
411.7526	27.86766
411.9184	30.05672
412.0843	28.16841
412.2501	28.26623
412.4159	29.87305
412.5818	29.6708
412.7476	24.44335
412.9134	27.68256
413.0792	25.06532
413.245	27.62631
413.4108	29.2619
413.5766	31.90718
413.7424	32.57289
413.9082	29.58381
414.074	33.48701
414.2397	28.87074
414.4055	29.40398
414.5713	24.89375
414.737	29.50939
414.9028	30.69446
415.0685	28.54189
415.2343	34.10249
415.4	28.51047
415.5658	27.55614
415.7315	32.49729
415.8972	31.49457
416.0629	35.00876
416.2286	32.39017
416.3943	31.6888
416.56	27.50895
416.7257	29.4552
416.8914	33.87852
417.0571	33.38214
417.2228	29.08726
417.3884	31.8758
417.5541	30.1505
417.7198	32.52547
417.8854	31.22932
418.0511	32.54021
418.2167	28.06041
418.3824	33.60493
418.548	31.39242
418.7136	29.59251
418.8792	32.08141
419.0449	31.39195
419.2105	32.85601
419.3761	33.884
419.5417	29.25672
419.7073	30.57425
419.8729	24.98482
420.0385	26.73455
420.204	32.73658
420.3696	30.11768
420.5352	36.86828
420.7007	34.29372
420.8663	31.83497
421.0319	38.67271
421.1974	40.68153
421.3629	34.3961
421.5285	31.71193
421.694	35.369
421.8595	35.33754
422.0251	36.39462
422.1906	41.74419
422.3561	32.80896
422.5216	31.67169
422.6871	30.09514
422.8526	29.42054
423.0181	35.32185
423.1835	37.63728
423.349	37.59442
423.5145	37.8303
423.68	36.30122
423.8454	34.73634
424.0109	36.23925
424.1763	34.0976
424.3418	38.92523
424.5072	36.81376
424.6726	39.8693
424.838	35.62059
425.0035	36.48713
425.1689	40.60562
425.3343	39.84642
425.4997	46.0075
425.6651	41.33408
425.8305	38.80477
425.9959	35.75509
426.1613	34.14843
426.3267	38.00564
426.492	40.13412
426.6574	39.95391
426.8228	34.97873
426.9881	34.25486
427.1534	35.66798
427.3188	30.23802
427.4841	31.57301
427.6495	38.89956
427.8148	42.35178
427.9801	43.43827
428.1454	36.86198
428.3107	40.20139
428.476	40.75992
428.6414	41.79937
428.8066	36.57224
428.9719	42.29319
429.1372	36.41119
429.3025	32.52173
429.4678	39.59566
429.633	36.44923
429.7983	35.29443
429.9636	31.47924
430.1288	28.84633
430.294	33.56534
430.4593	34.87822
430.6245	30.9842
430.7897	30.22476
430.955	33.11398
431.1202	33.98069
431.2854	29.25022
431.4506	38.03258
431.6158	43.82664
431.781	47.04671
431.9462	47.50929
432.1114	45.79455
432.2766	42.65549
432.4417	39.55688
432.6069	34.95055
432.772	38.42043
432.9372	43.53716
433.1024	48.00225
433.2675	44.28948
433.4326	46.35403
433.5977	43.88457
433.7629	40.91661
433.928	42.36983
434.0931	36.36086
434.2582	40.74092
434.4233	36.597
434.5884	37.32109
434.7535	48.9277
434.9186	53.64413
435.0837	50.37863
435.2488	41.78042
435.4138	47.67213
435.5789	48.83487
435.744	50.55991
435.909	51.51474
436.0741	49.5828
436.2391	52.65818
436.4042	52.29508
436.5692	47.37082
436.7342	51.11173
436.8992	49.19327
437.0643	50.34351
437.2293	51.52423
437.3943	51.23683
437.5593	48.98106
437.7243	49.11853
437.8893	47.22115
438.0542	51.40567
438.2192	45.68376
438.3842	43.89295
438.5491	43.27489
438.7141	46.79915
438.8791	48.79368
439.044	48.65936
439.209	50.65036
439.3739	51.74047
439.5388	47.95623
439.7037	47.56842
439.8687	53.36155
440.0336	50.66702
440.1985	56.23566
440.3634	45.96482
440.5283	46.77282
440.6932	45.6562
440.8581	52.12064
441.0229	60.74431
441.1878	59.77902
441.3527	55.51071
441.5175	55.61437
441.6824	53.74136
441.8472	54.85218
442.0121	61.48047
442.1769	52.95319
442.3418	53.36492
442.5066	57.73807
442.6714	59.94285
442.8362	60.06596
443.001	56.16664
443.1659	54.88538
443.3307	62.28823
443.4955	57.68374
443.6602	47.77728
443.825	58.42062
443.9898	61.08913
444.1546	55.16211
444.3193	58.02996
444.4841	60.69445
444.6488	63.591
444.8136	61.25993
444.9783	63.32861
445.1431	57.6765
445.3078	55.91359
445.4725	58.57294
445.6372	59.80907
445.802	56.38263
445.9667	56.59628
446.1314	58.40446
446.2961	61.48259
446.4608	59.44769
446.6255	64.43874
446.7901	58.78492
446.9548	63.67719
447.1195	58.70237
447.2841	57.89592
447.4488	63.07834
447.6134	63.45361
447.7781	63.52253
447.9427	62.37601
448.1074	64.59218
448.272	61.16483
448.4366	64.37476
448.6012	62.82597
448.7658	62.72556
448.9305	59.50031
449.095	64.3166
449.2596	66.22919
449.4242	58.86979
449.5888	64.28924
449.7534	64.38263
449.9179	64.96059
450.0825	66.81319
450.2471	69.91242
450.4116	67.55963
450.5762	65.9671
450.7407	72.24229
450.9052	72.26108
451.0698	70.50191
451.2343	67.84578
451.3988	66.06367
451.5633	68.05038
451.7278	68.35139
451.8923	69.16431
452.0568	70.598
452.2213	69.65695
452.3858	68.76977
452.5503	68.22949
452.7148	65.93878
452.8792	65.71806
453.0437	65.8486
453.2081	64.4224
453.3726	63.65294
453.537	63.82206
453.7015	67.05199
453.8659	67.49193
454.0303	75.09425
454.1947	72.81357
454.3592	74.64726
454.5236	67.96474
454.688	58.74569
454.8524	66.01338
455.0168	70.66953
455.1811	74.70322
455.3455	74.34846
455.5099	71.58714
455.6743	72.41323
455.8386	72.54687
456.003	79.03127
456.1673	76.71291
456.3317	75.71683
456.496	71.05882
456.6603	71.0107
456.8246	72.91925
456.989	72.24171
457.1533	68.69594
457.3176	73.19285
457.4819	73.85835
457.6462	71.20678
457.8105	75.94411
457.9748	70.27052
458.1391	73.89593
458.3033	68.19606
458.4676	71.94618
458.6319	77.40365
458.7961	78.59572
458.9604	73.14559
459.1246	68.14352
459.2888	71.60741
459.4531	74.11987
459.6173	71.83895
459.7815	72.76577
459.9457	72.24274
460.11	67.04747
460.2741	67.62462
460.4384	70.3069
460.6025	74.76733
460.7667	79.81689
460.9309	75.4263
461.0951	73.84506
461.2592	75.34739
461.4234	77.20647
461.5876	74.77006
461.7517	76.22301
461.9159	74.52941
462.08	76.4873
462.2441	76.9447
462.4082	73.72671
462.5724	71.73768
462.7365	75.68388
462.9006	79.86474
463.0647	73.34995
463.2288	76.16753
463.3929	80.22277
463.557	78.19216
463.721	73.17013
463.8851	71.68724
464.0492	72.7832
464.2132	78.93813
464.3773	76.78029
464.5414	78.65234
464.7054	74.07804
464.8694	73.39642
465.0334	73.86038
465.1975	79.75275
465.3615	77.70274
465.5255	72.66815
465.6895	76.54939
465.8535	75.91716
466.0175	76.89996
466.1815	73.59576
466.3455	76.05826
466.5095	77.25395
466.6734	72.88158
466.8374	67.23796
467.0014	76.40663
467.1653	73.87965
467.3293	75.74331
467.4932	77.72926
467.6571	84.43621
467.8211	81.94039
467.985	80.23163
468.1489	75.75772
468.3128	78.54597
468.4767	84.26781
468.6406	79.86081
468.8045	77.31456
468.9684	79.52118
469.1323	81.57422
469.2962	78.92139
469.46	77.97552
469.6239	77.5581
469.7878	78.65327
469.9516	72.06649
470.1154	71.9367
470.2793	71.34444
470.4431	72.68896
470.607	79.21653
470.7708	79.96515
470.9346	80.93036
471.0984	81.9149
471.2622	80.05215
471.426	81.52701
471.5898	82.2646
471.7536	88.24203
471.9174	85.69555
472.0811	87.01518
472.2449	88.72914
472.4087	84.65847
472.5724	73.99493
472.7362	76.22912
472.8999	83.95626
473.0637	79.46768
473.2274	80.54068
473.3911	75.79948
473.5548	79.66574
473.7185	80.17416
473.8822	75.38702
474.0459	77.60578
474.2096	80.39423
474.3733	81.65063
474.537	82.73822
474.7007	87.03815
474.8643	86.96556
475.028	81.19402
475.1917	85.79367
475.3553	86.26554
475.519	86.96752
475.6826	82.51778
475.8463	78.14005
476.0099	83.04896
476.1735	83.41289
476.3371	83.4569
476.5007	81.79877
476.6643	75.66457
476.8279	80.92047
476.9915	79.97081
477.1551	81.5254
477.3187	80.06346
477.4823	80.77578
477.6458	84.85278
477.8094	86.75363
477.9729	84.38998
478.1365	85.68523
478.3	84.43954
478.4636	85.06512
478.6271	83.84986
478.7906	80.25731
478.9541	81.63236
479.1176	82.12678
479.2812	79.77069
479.4447	83.42284
479.6082	85.38149
479.7716	90.66577
479.9351	84.83504
480.0986	80.16376
480.2621	88.75315
480.4255	79.96484
480.589	79.26707
480.7524	78.77322
480.9159	85.64014
481.0793	89.70395
481.2428	87.6479
481.4062	86.53919
481.5696	88.62418
481.733	87.16177
481.8964	91.24424
482.0598	87.1469
482.2232	85.47396
482.3866	86.54719
482.55	79.26498
482.7134	87.9502
482.8768	85.06796
483.0401	85.38884
483.2035	82.98928
483.3668	84.41265
483.5302	85.74084
483.6935	89.79427
483.8568	80.85661
484.0202	80.1955
484.1835	81.64166
484.3468	80.42699
484.5101	82.01548
484.6734	79.41106
484.8367	84.89005
485	88.01179
485.1633	85.32221
485.3266	85.94278
485.4899	82.07742
485.6531	81.01403
485.8164	70.60823
485.9796	73.28181
486.1429	67.46478
486.3061	64.89988
486.4694	74.19318
486.6326	80.53342
486.7958	83.48583
486.959	79.66656
487.1223	78.19004
487.2855	83.20914
487.4486	84.61352
487.6118	79.57375
487.775	78.24218
487.9382	83.19697
488.1014	81.32094
488.2646	80.74798
488.4277	86.28301
488.5909	81.17844
488.754	81.59037
488.9171	77.92265
489.0803	83.14244
489.2434	80.14361
489.4066	82.5239
489.5697	88.13861
489.7328	85.7589
489.8959	90.31934
490.059	92.13357
490.2221	89.04699
490.3852	93.40773
490.5482	91.47983
490.7113	87.92959
490.8744	85.27285
491.0374	83.61467
491.2005	87.18443
491.3636	86.03537
491.5266	92.33372
491.6896	88.65288
491.8527	91.8979
492.0157	82.46273
492.1787	81.0574
492.3417	83.19993
492.5047	89.36865
492.6677	93.62994
492.8307	92.11215
492.9937	89.62027
493.1567	88.27351
493.3196	85.54156
493.4826	81.62288
493.6456	82.15858
493.8085	83.7702
493.9715	88.57034
494.1344	92.58825
494.2974	93.15948
494.4603	93.88956
494.6232	91.20174
494.7861	89.12788
494.949	92.22401
495.1119	96.20507
495.2748	93.10334
495.4377	93.15459
495.6006	92.03897
495.7635	86.6415
495.9264	90.00863
496.0892	89.35318
496.2521	95.80047
496.4149	88.22871
496.5778	90.31226
496.7407	92.42721
496.9035	90.44643
497.0663	95.46864
497.2291	91.95869
497.3919	93.58665
497.5547	94.72675
497.7176	100.1182
497.8804	97.96085
498.0432	92.47034
498.2059	89.51836
498.3687	83.84287
498.5315	90.11596
498.6942	93.66394
498.857	93.58896
499.0198	92.63935
499.1825	95.1339
499.3452	93.07102
499.508	102.4487
499.6707	101.8364
499.8334	95.80106
499.9962	97.1143
500.1589	93.30859
500.3216	90.6132
500.4843	88.55403
500.6469	93.73352
500.8096	95.72657
500.9723	93.60152
501.135	91.43033
501.2976	88.77206
501.4603	92.20778
501.623	95.29826
501.7856	90.24837
501.9482	96.82594
502.1109	98.82021
502.2735	95.0071
502.4361	93.69759
502.5987	96.00396
502.7614	92.94618
502.924	98.0386
503.0865	98.92136
503.2491	96.75249
503.4117	101.7217
503.5743	98.6053
503.7368	99.1066
503.8994	92.92186
504.062	91.04884
504.2245	91.69376
504.3871	103.6596
504.5496	99.21178
504.7121	106.647
504.8746	105.9818
505.0372	103.0581
505.1997	96.73452
505.3622	102.273
505.5247	104.7806
505.6872	106.1707
505.8497	112.7804
506.0121	111.673
506.1746	112.5185
506.3371	108.0815
506.4995	110.6474
506.662	108.3718
506.8244	107.4352
506.9869	108.4892
507.1493	106.5262
507.3117	107.1703
507.4742	102.2794
507.6366	112.2403
507.799	112.08
507.9614	106.7545
508.1238	105.6944
508.2862	107.8592
508.4485	107.634
508.6109	114.7957
508.7733	108.3966
508.9357	113.5719
509.098	120.4458
509.2604	122.8864
509.4227	121.0693
509.5851	117.3036
509.7474	105.4761
509.9097	102.8915
510.072	108.3379
510.2343	116.3943
510.3966	121.7558
510.5589	119.1876
510.7212	109.7407
510.8835	113.095
511.0458	113.4602
511.2081	114.5678
511.3703	114.674
511.5326	116.5765
511.6949	124.6325
511.8571	128.9247
512.0193	127.2213
512.1816	125.5646
512.3438	123.1648
512.506	123.5988
512.6682	126.5044
512.8304	122.0173
512.9926	120.4962
513.1548	120.6392
513.317	116.9391
513.4792	122.0406
513.6414	125.2677
513.8035	124.4102
513.9657	127.0475
514.1279	119.4066
514.29	125.4399
514.4521	122.4351
514.6143	127.7967
514.7764	129.5571
514.9385	132.1396
515.1006	128.9263
515.2628	132.0972
515.4249	129.5033
515.587	124.3425
515.7491	132.8236
515.9111	137.3148
516.0732	132.0909
516.2353	132.9166
516.3973	129.785
