SPECTRUM DATA FILE
SpectrumCount:	1
PixelCount:	3648
UserName:	ToughBook User
SampleName:	
LightSource:	
Comments:	
DeviceName:	Qwave
DeviceManufacturer:	Broadcom
DeviceSerialNo:	11311

Name:	last spectrum
Date:	2024-05-02T14:42:49.1356312+02:00
ExposureTime:	0.02
TemporalAvg:	1
IntensityUnit:	normalizedCounts
CCDLoadLevel:	0.05172356
Temperature:	31.05875
DiagramColor:	200
ProcessingSteps:	335

Wavelength [nm]	Intensity1
334.421	8.740211
334.5891	7.05829
334.7573	9.168183
334.9254	8.355291
335.0935	7.392522
335.2616	5.809586
335.4297	8.808279
335.5978	5.012953
335.7659	7.015037
335.934	2.131699
336.1021	6.28101
336.2701	4.66557
336.4382	2.322065
336.6063	8.362396
336.7744	7.396811
336.9424	7.89215
337.1105	9.565423
337.2785	6.395952
337.4466	11.36849
337.6146	5.40265
337.7827	4.851294
337.9507	3.622318
338.1187	10.49219
338.2867	10.31449
338.4548	7.1082
338.6228	8.593285
338.7908	10.20593
338.9588	4.783131
339.1268	7.522851
339.2948	5.223225
339.4628	5.542393
339.6308	7.062584
339.7988	7.3075
339.9667	3.708038
340.1347	7.203858
340.3027	6.267429
340.4707	7.236049
340.6386	7.595751
340.8066	6.670568
340.9745	4.992112
341.1425	7.417529
341.3104	4.455204
341.4784	10.52719
341.6463	11.35306
341.8142	7.698589
341.9821	7.732666
342.1501	5.811234
342.318	3.626382
342.4859	5.76704
342.6538	9.299362
342.8217	6.609528
342.9896	12.49387
343.1575	7.288034
343.3254	7.669247
343.4933	4.435017
343.6612	7.298978
343.829	7.89925
343.9969	7.723268
344.1648	10.90013
344.3326	5.704729
344.5005	8.035963
344.6683	6.802458
344.8362	6.053031
345.004	2.386059
345.1719	9.498533
345.3397	9.219606
345.5075	9.140761
345.6754	11.97382
345.8432	12.05302
346.011	13.00899
346.1788	10.94288
346.3466	4.974804
346.5144	9.881816
346.6822	7.176173
346.85	7.994732
347.0178	8.565818
347.1856	11.52358
347.3534	13.40105
347.5211	7.807116
347.6889	6.360126
347.8567	10.22701
348.0244	10.2726
348.1922	7.431931
348.3599	2.164441
348.5277	5.139292
348.6954	4.003544
348.8632	9.316394
349.0309	4.75808
349.1986	4.450001
349.3663	6.24484
349.5341	6.960871
349.7018	9.55134
349.8695	10.6842
350.0372	5.673991
350.2049	8.447941
350.3726	5.990694
350.5403	6.326614
350.7079	5.930154
350.8756	3.327064
351.0433	5.436526
351.211	9.388177
351.3786	6.615042
351.5463	9.713434
351.714	11.76106
351.8816	4.894731
352.0493	7.471901
352.2169	8.420658
352.3846	9.279972
352.5522	11.72453
352.7198	7.307011
352.8875	8.682458
353.0551	9.796729
353.2227	10.14353
353.3903	7.310259
353.5579	8.68219
353.7255	11.9424
353.8931	8.443847
354.0607	12.23674
354.2283	13.25587
354.3958	9.149149
354.5634	11.32962
354.731	10.86307
354.8986	10.77229
355.0661	8.021835
355.2337	10.22061
355.4012	9.320739
355.5688	8.250847
355.7363	9.218637
355.9039	8.074195
356.0714	8.037166
356.239	9.236954
356.4065	9.8394
356.574	10.18494
356.7415	5.166747
356.909	7.573428
357.0765	9.279788
357.244	7.374667
357.4115	10.65289
357.579	8.386329
357.7465	8.329287
357.914	8.436787
358.0815	7.352695
358.249	7.976266
358.4164	6.140939
358.5839	7.153121
358.7513	12.43623
358.9188	11.92194
359.0862	8.118394
359.2537	8.292556
359.4211	10.31834
359.5886	7.105978
359.756	8.573218
359.9234	9.503033
360.0909	8.903344
360.2583	11.59861
360.4257	7.144602
360.5931	9.371536
360.7605	10.45135
360.9279	7.393924
361.0953	9.304962
361.2627	12.93176
361.4301	8.055366
361.5974	11.4079
361.7648	12.45
361.9322	7.035376
362.0995	4.955099
362.2669	10.57323
362.4343	11.74468
362.6016	10.41437
362.769	12.62618
362.9363	18.02972
363.1036	13.30806
363.271	9.778554
363.4383	11.63922
363.6056	8.295152
363.7729	12.11782
363.9402	12.79681
364.1075	12.57256
364.2748	11.43091
364.4421	15.27312
364.6094	12.28678
364.7767	13.73918
364.944	13.73142
365.1113	11.84113
365.2786	9.32114
365.4458	11.26331
365.6131	10.48293
365.7803	9.705531
365.9476	10.02744
366.1148	7.51782
366.2821	9.722288
366.4493	12.9446
366.6166	9.422192
366.7838	11.99278
366.951	12.36294
367.1182	8.757672
367.2855	5.649879
367.4527	8.687757
367.6199	10.44897
367.7871	9.385726
367.9543	4.018593
368.1215	11.90114
368.2886	12.03524
368.4558	8.815555
368.623	7.835939
368.7902	9.488128
368.9573	11.85368
369.1245	4.004862
369.2917	7.819508
369.4588	7.387316
369.6259	8.420053
369.7931	13.09501
369.9602	15.56456
370.1274	9.09821
370.2945	11.17438
370.4616	10.04916
370.6287	13.64173
370.7958	12.43062
370.963	7.170782
371.1301	9.535393
371.2971	11.2752
371.4643	9.035428
371.6313	12.41833
371.7984	10.08453
371.9655	6.894401
372.1326	9.067262
372.2997	12.51259
372.4667	10.70254
372.6338	11.15375
372.8008	9.966234
372.9679	11.12171
373.1349	13.02792
373.3019	14.59893
373.469	10.90982
373.636	9.752493
373.803	10.44357
373.9701	12.54265
374.1371	10.7373
374.3041	13.35506
374.4711	9.593237
374.6381	10.62153
374.8051	10.05533
374.9721	10.89226
375.1391	12.15887
375.3061	6.289721
375.473	7.201469
375.64	7.734443
375.8069	12.99689
375.9739	9.838055
376.1409	11.94226
376.3078	9.724069
376.4748	9.19383
376.6417	16.64565
376.8087	9.929799
376.9756	11.97344
377.1425	15.06325
377.3094	19.30855
377.4763	15.97786
377.6432	14.88454
377.8102	14.17303
377.9771	13.97602
378.144	14.68215
378.3109	11.25526
378.4777	12.29593
378.6446	13.8057
378.8115	13.74796
378.9784	12.70395
379.1452	11.39821
379.3121	9.038432
379.4789	13.91225
379.6458	14.11725
379.8127	5.012573
379.9795	10.82945
380.1463	9.198758
380.3131	11.25714
380.48	15.20106
380.6468	16.96024
380.8136	10.72592
380.9804	12.54841
381.1472	12.91713
381.314	12.77409
381.4808	10.85641
381.6476	15.70249
381.8144	13.96293
381.9812	12.40353
382.148	18.71756
382.3147	9.594824
382.4815	9.123028
382.6483	10.69031
382.815	6.332686
382.9818	12.05031
383.1485	11.79028
383.3153	10.42381
383.482	10.83973
383.6487	13.51342
383.8155	11.12376
383.9822	15.82913
384.1489	11.35725
384.3156	11.81102
384.4823	14.7946
384.649	16.52858
384.8157	15.21148
384.9824	13.27199
385.1491	14.05302
385.3158	9.735318
385.4825	16.90256
385.6491	14.483
385.8158	9.77622
385.9825	9.955858
386.1491	10.52638
386.3157	12.76931
386.4824	15.12879
386.649	8.50791
386.8157	14.0107
386.9823	14.29128
387.1489	11.95025
387.3156	15.71156
387.4821	13.85001
387.6488	12.95133
387.8154	11.39993
387.982	13.54583
388.1486	8.875785
388.3152	13.99137
388.4818	11.85019
388.6483	11.19201
388.8149	12.56266
388.9815	12.51669
389.148	12.16377
389.3146	12.45261
389.4811	20.54072
389.6477	16.47706
389.8142	15.27883
389.9808	15.42454
390.1473	16.09292
390.3138	20.32459
390.4804	16.16097
390.6469	13.16654
390.8134	16.29059
390.9799	17.71845
391.1464	16.55323
391.3129	14.38163
391.4794	17.28399
391.6459	14.51478
391.8124	17.54804
391.9789	18.10127
392.1453	14.12853
392.3118	12.02244
392.4782	15.37795
392.6447	15.04719
392.8112	13.78333
392.9776	15.58261
393.144	15.28727
393.3105	11.41832
393.4769	10.25335
393.6433	12.08963
393.8098	15.3225
393.9762	17.16007
394.1426	14.71544
394.309	14.49312
394.4754	13.62324
394.6418	17.96567
394.8082	14.31676
394.9746	18.94109
395.141	19.36801
395.3073	16.97097
395.4737	16.26142
395.64	16.75683
395.8064	17.92483
395.9728	17.71721
396.1391	15.43385
396.3055	16.86714
396.4718	18.05428
396.6381	14.75748
396.8045	12.92002
396.9708	14.21777
397.1371	10.01911
397.3034	16.37864
397.4697	10.47378
397.636	15.76071
397.8023	16.46516
397.9686	21.28317
398.1349	18.36522
398.3012	23.1632
398.4675	18.88369
398.6337	19.50906
398.8	17.21004
398.9662	20.31509
399.1325	16.82773
399.2988	18.00342
399.465	23.54785
399.6313	21.85057
399.7975	20.07681
399.9637	21.62601
400.1299	26.6781
400.2961	23.00387
400.4624	20.07619
400.6286	21.80777
400.7948	16.32507
400.961	23.49113
401.1272	25.32481
401.2934	21.5966
401.4595	20.54912
401.6257	23.2466
401.7919	25.46759
401.9581	23.26999
402.1242	22.70964
402.2904	23.54867
402.4565	23.20078
402.6227	25.75483
402.7888	24.13648
402.955	24.36704
403.1211	22.50154
403.2872	24.89378
403.4533	22.26496
403.6194	22.48834
403.7856	23.33529
403.9517	23.52631
404.1177	27.93808
404.2838	21.51458
404.4499	21.33156
404.616	19.97684
404.7821	20.76243
404.9482	25.21022
405.1142	27.17167
405.2803	21.03568
405.4464	24.48552
405.6124	21.78568
405.7784	19.58083
405.9445	21.79436
406.1105	21.35146
406.2766	20.19189
406.4426	22.85732
406.6086	22.15271
406.7746	25.89079
406.9406	26.61798
407.1066	26.4863
407.2726	25.75984
407.4386	26.25484
407.6046	26.55492
407.7706	21.78253
407.9366	25.63148
408.1025	25.04175
408.2685	25.5419
408.4344	27.78274
408.6004	26.13848
408.7664	27.57982
408.9323	27.65076
409.0983	30.95161
409.2642	34.13223
409.4301	29.62618
409.596	34.06607
409.762	31.89307
409.9279	28.98029
410.0938	24.1051
410.2597	24.40616
410.4256	24.53216
410.5915	28.99973
410.7574	27.9166
410.9232	29.33827
411.0891	30.74483
411.255	31.35135
411.4209	32.3245
411.5867	33.43489
411.7526	29.84362
411.9184	26.43669
412.0843	31.21502
412.2501	32.11441
412.4159	33.58871
412.5818	36.2119
412.7476	31.40168
412.9134	28.79102
413.0792	26.80477
413.245	32.97159
413.4108	36.15667
413.5766	28.19091
413.7424	31.45195
413.9082	32.19772
414.074	30.46616
414.2397	31.89794
414.4055	32.14037
414.5713	33.76127
414.737	28.88794
414.9028	30.70296
415.0685	30.41451
415.2343	29.69585
415.4	27.58981
415.5658	29.08847
415.7315	29.53602
415.8972	36.015
416.0629	30.76424
416.2286	34.46805
416.3943	31.67479
416.56	34.32197
416.7257	31.71168
416.8914	30.06114
417.0571	30.70533
417.2228	29.88936
417.3884	37.35038
417.5541	35.15669
417.7198	28.71284
417.8854	29.09117
418.0511	29.28669
418.2167	34.41282
418.3824	32.48095
418.548	36.31744
418.7136	31.10906
418.8792	29.84564
419.0449	34.22306
419.2105	34.3245
419.3761	35.80371
419.5417	33.35897
419.7073	29.60849
419.8729	28.50779
420.0385	30.6554
420.204	29.5362
420.3696	30.16847
420.5352	36.09104
420.7007	35.30049
420.8663	33.98171
421.0319	37.72313
421.1974	37.44202
421.3629	36.2669
421.5285	37.17165
421.694	37.78756
421.8595	36.41555
422.0251	35.29859
422.1906	33.22372
422.3561	34.967
422.5216	37.18118
422.6871	34.70786
422.8526	38.44371
423.0181	40.19557
423.1835	41.2445
423.349	38.21819
423.5145	35.51053
423.68	37.09852
423.8454	42.22831
424.0109	37.55621
424.1763	39.25082
424.3418	42.5803
424.5072	40.1603
424.6726	34.80279
424.838	41.27221
425.0035	42.34944
425.1689	41.4814
425.3343	38.80909
425.4997	37.2354
425.6651	41.29494
425.8305	39.56693
425.9959	40.58691
426.1613	38.86361
426.3267	45.31408
426.492	47.01163
426.6574	42.42661
426.8228	37.20752
426.9881	37.31287
427.1534	42.56691
427.3188	33.3783
427.4841	30.61867
427.6495	41.85033
427.8148	38.78199
427.9801	39.64574
428.1454	44.24445
428.3107	44.29704
428.476	36.98642
428.6414	39.6404
428.8066	36.62094
428.9719	40.73556
429.1372	37.38711
429.3025	39.0837
429.4678	40.26553
429.633	36.81756
429.7983	36.73819
429.9636	36.15955
430.1288	28.51208
430.294	30.79334
430.4593	32.1163
430.6245	34.70755
430.7897	34.12992
430.955	33.26931
431.1202	32.50748
431.2854	38.25272
431.4506	35.36184
431.6158	42.69788
431.781	46.63519
431.9462	48.02498
432.1114	41.54007
432.2766	43.29161
432.4417	39.90382
432.6069	39.70235
432.772	45.59137
432.9372	51.08131
433.1024	48.55542
433.2675	47.04382
433.4326	48.28253
433.5977	48.50372
433.7629	41.08897
433.928	41.76381
434.0931	43.40375
434.2582	41.16738
434.4233	39.66087
434.5884	45.65574
434.7535	47.12677
434.9186	45.95164
435.0837	48.06676
435.2488	49.45938
435.4138	49.2802
435.5789	48.16276
435.744	46.61925
435.909	50.11771
436.0741	50.79242
436.2391	50.3731
436.4042	57.47515
436.5692	55.30573
436.7342	56.80818
436.8992	51.82178
437.0643	53.7701
437.2293	50.01717
437.3943	45.99434
437.5593	50.08599
437.7243	48.06187
437.8893	53.07138
438.0542	50.55194
438.2192	47.68633
438.3842	43.53936
438.5491	48.04213
438.7141	51.7858
438.8791	48.97936
439.044	49.46347
439.209	48.57899
439.3739	51.93846
439.5388	53.22122
439.7037	55.85165
439.8687	55.32239
440.0336	50.12407
440.1985	51.53035
440.3634	50.82959
440.5283	50.27258
440.6932	50.24372
440.8581	53.84901
441.0229	53.93729
441.1878	59.02668
441.3527	58.26984
441.5175	55.99364
441.6824	54.23098
441.8472	62.40847
442.0121	62.79494
442.1769	58.91371
442.3418	57.95409
442.5066	58.62083
442.6714	61.75165
442.8362	59.63337
443.001	56.75601
443.1659	62.49846
443.3307	58.72507
443.4955	58.66747
443.6602	60.46046
443.825	57.50115
443.9898	56.77649
444.1546	55.54187
444.3193	56.90237
444.4841	59.69191
444.6488	69.89883
444.8136	63.40997
444.9783	60.59023
445.1431	62.06289
445.3078	63.12032
445.4725	59.42001
445.6372	59.8618
445.802	54.13602
445.9667	58.69245
446.1314	62.00281
446.2961	59.21268
446.4608	56.58998
446.6255	59.30785
446.7901	63.67433
446.9548	65.36552
447.1195	61.15658
447.2841	67.50113
447.4488	62.19991
447.6134	63.61525
447.7781	64.22218
447.9427	65.41273
448.1074	64.44722
448.272	60.29636
448.4366	63.41578
448.6012	67.57323
448.7658	62.67322
448.9305	63.59516
449.095	68.42374
449.2596	62.94364
449.4242	67.28672
449.5888	63.89404
449.7534	67.54813
449.9179	69.99931
450.0825	68.44212
450.2471	70.32109
450.4116	70.5645
450.5762	73.43494
450.7407	71.13165
450.9052	71.49995
451.0698	69.05888
451.2343	75.41021
451.3988	63.06078
451.5633	65.88724
451.7278	67.17889
451.8923	68.02847
452.0568	71.13432
452.2213	70.96496
452.3858	71.70644
452.5503	67.70652
452.7148	63.97472
452.8792	64.16999
453.0437	61.76028
453.2081	63.92337
453.3726	65.77572
453.537	67.13334
453.7015	68.50451
453.8659	72.45165
454.0303	72.74832
454.1947	69.87853
454.3592	70.39822
454.5236	65.91444
454.688	67.86048
454.8524	67.82159
455.0168	69.93031
455.1811	76.30511
455.3455	69.81107
455.5099	63.21614
455.6743	74.25095
455.8386	73.84361
456.003	76.0871
456.1673	76.2708
456.3317	78.08344
456.496	72.08822
456.6603	78.40274
456.8246	69.84666
456.989	68.98553
457.1533	77.37708
457.3176	73.98827
457.4819	79.58392
457.6462	78.86634
457.8105	76.65778
457.9748	73.48105
458.1391	68.1228
458.3033	67.14551
458.4676	66.88683
458.6319	72.03964
458.7961	72.64119
458.9604	71.56259
459.1246	74.14467
459.2888	73.96168
459.4531	74.41318
459.6173	72.61141
459.7815	71.29416
459.9457	72.0899
460.11	76.67497
460.2741	75.28706
460.4384	68.14204
460.6025	76.56915
460.7667	81.60531
460.9309	74.39265
461.0951	75.13823
461.2592	75.63261
461.4234	76.9895
461.5876	70.82832
461.7517	64.71997
461.9159	69.14773
462.08	77.7429
462.2441	77.78967
462.4082	76.33961
462.5724	76.51282
462.7365	77.20319
462.9006	72.73299
463.0647	72.94249
463.2288	78.83348
463.3929	77.97368
463.557	74.62902
463.721	75.26036
463.8851	71.94032
464.0492	76.26364
464.2132	74.70859
464.3773	74.29374
464.5414	74.16323
464.7054	74.97289
464.8694	74.05015
465.0334	82.39864
465.1975	78.63959
465.3615	77.10189
465.5255	70.96494
465.6895	77.55371
465.8535	78.88885
466.0175	81.30019
466.1815	81.0287
466.3455	79.48565
466.5095	77.23065
466.6734	70.98268
466.8374	70.65427
467.0014	76.17856
467.1653	74.57314
467.3293	83.81988
467.4932	78.73318
467.6571	78.8239
467.8211	83.58397
467.985	81.42616
468.1489	78.06924
468.3128	78.69123
468.4767	74.26149
468.6406	76.14861
468.8045	76.72872
468.9684	74.84983
469.1323	81.91856
469.2962	82.11517
469.46	79.07575
469.6239	79.73257
469.7878	77.29321
469.9516	80.41661
470.1154	78.7686
470.2793	77.52525
470.4431	75.3886
470.607	69.16584
470.7708	73.12196
470.9346	74.64586
471.0984	76.79057
471.2622	82.88404
471.426	84.98486
471.5898	79.79774
471.7536	80.6647
471.9174	86.25292
472.0811	85.97597
472.2449	87.12569
472.4087	79.50642
472.5724	75.85854
472.7362	80.74618
472.8999	84.15448
473.0637	82.05357
473.2274	78.68307
473.3911	85.36996
473.5548	81.48981
473.7185	81.65457
473.8822	82.57542
474.0459	88.14342
474.2096	81.49078
474.3733	80.41747
474.537	84.55301
474.7007	85.96863
474.8643	81.53749
475.028	79.15446
475.1917	85.34899
475.3553	87.54328
475.519	80.50938
475.6826	71.54198
475.8463	75.35001
476.0099	84.14793
476.1735	78.63223
476.3371	79.14407
476.5007	78.11125
476.6643	81.11416
476.8279	80.49587
476.9915	85.92397
477.1551	83.20515
477.3187	86.94895
477.4823	88.02679
477.6458	88.34268
477.8094	86.11857
477.9729	82.94743
478.1365	88.16414
478.3	81.48692
478.4636	84.88206
478.6271	79.0237
478.7906	80.40321
478.9541	85.76776
479.1176	80.883
479.2812	89.27722
479.4447	86.05245
479.6082	84.55519
479.7716	82.62157
479.9351	81.34198
480.0986	78.1544
480.2621	88.46439
480.4255	81.35085
480.589	83.34154
480.7524	80.592
480.9159	88.63941
481.0793	81.53535
481.2428	77.38887
481.4062	83.27757
481.5696	81.76787
481.733	84.64161
481.8964	88.72563
482.0598	87.8709
482.2232	85.1334
482.3866	80.58221
482.55	81.29736
482.7134	82.98936
482.8768	89.80096
483.0401	86.7887
483.2035	85.59143
483.3668	88.56089
483.5302	85.13277
483.6935	86.16972
483.8568	82.3158
484.0202	81.09718
484.1835	84.27164
484.3468	81.56107
484.5101	75.64758
484.6734	82.31911
484.8367	83.90225
485	83.50797
485.1633	89.26507
485.3266	80.7769
485.4899	76.41376
485.6531	80.86422
485.8164	73.13407
485.9796	71.15222
486.1429	67.34203
486.3061	67.16029
486.4694	73.8783
486.6326	78.70617
486.7958	78.93085
486.959	77.02652
487.1223	77.21053
487.2855	77.84115
487.4486	84.58633
487.6118	83.99713
487.775	87.19617
487.9382	79.92099
488.1014	87.17588
488.2646	86.92395
488.4277	83.69936
488.5909	82.03366
488.754	84.12587
488.9171	85.85735
489.0803	78.70016
489.2434	75.10374
489.4066	83.97263
489.5697	91.81503
489.7328	82.70486
489.8959	82.39016
490.059	85.90243
490.2221	86.38912
490.3852	84.95022
490.5482	83.30506
490.7113	91.55445
490.8744	87.99902
491.0374	87.14846
491.2005	86.63621
491.3636	90.5006
491.5266	89.75819
491.6896	80.02608
491.8527	81.35115
492.0157	77.09147
492.1787	77.95451
492.3417	83.07154
492.5047	79.5062
492.6677	85.77146
492.8307	83.44463
492.9937	92.58208
493.1567	89.2851
493.3196	88.99722
493.4826	92.36168
493.6456	82.52533
493.8085	82.31548
493.9715	87.41523
494.1344	86.33832
494.2974	88.63492
494.4603	91.72246
494.6232	89.2154
494.7861	92.37258
494.949	92.39359
495.1119	92.90669
495.2748	90.00375
495.4377	88.46239
495.6006	86.94175
495.7635	85.9065
495.9264	86.12811
496.0892	85.79296
496.2521	94.06052
496.4149	91.60741
496.5778	87.65668
496.7407	88.16647
496.9035	91.80791
497.0663	93.42696
497.2291	93.54295
497.3919	97.4712
497.5547	93.00219
497.7176	92.64938
497.8804	90.02164
498.0432	90.68309
498.2059	87.9039
498.3687	88.92123
498.5315	89.95908
498.6942	92.07998
498.857	95.04962
499.0198	96.14268
499.1825	95.19556
499.3452	90.52261
499.508	91.56821
499.6707	94.20458
499.8334	87.50492
499.9962	89.22841
500.1589	91.75906
500.3216	91.23221
500.4843	86.50492
500.6469	87.58333
500.8096	92.84186
500.9723	98.21917
501.135	93.68913
501.2976	95.626
501.4603	91.05463
501.623	90.82423
501.7856	92.84924
501.9482	97.08393
502.1109	92.89434
502.2735	90.56812
502.4361	90.47982
502.5987	95.31115
502.7614	92.84003
502.924	98.39754
503.0865	101.5213
503.2491	105.1396
503.4117	103.1955
503.5743	99.02672
503.7368	92.83362
503.8994	96.73633
504.062	93.27505
504.2245	95.96103
504.3871	101.1872
504.5496	106.2029
504.7121	98.57381
504.8746	106.8941
505.0372	104.8137
505.1997	108.2724
505.3622	110.8818
505.5247	112.3547
505.6872	110.9352
505.8497	106.7978
506.0121	112.4898
506.1746	111.3444
506.3371	113.1796
506.4995	106.165
506.662	110.5277
506.8244	112.4802
506.9869	112.206
507.1493	113.3301
507.3117	109.9247
507.4742	112.0034
507.6366	111.0346
507.799	107.1986
507.9614	100.31
508.1238	101.6751
508.2862	105.7704
508.4485	112.3179
508.6109	114.3649
508.7733	117.2138
508.9357	123.1657
509.098	116.7585
509.2604	116.757
509.4227	119.1715
509.5851	116.6634
509.7474	114.7009
509.9097	113.8482
510.072	119.7993
510.2343	124.776
510.3966	119.0028
510.5589	116.6663
510.7212	115.5123
510.8835	112.7344
511.0458	117.676
511.2081	121.4304
511.3703	124.023
511.5326	123.0728
511.6949	124.5018
511.8571	131.3537
512.0193	125.168
512.1816	125.9205
512.3438	126.5104
512.506	120.3115
512.6682	114.9041
512.8304	119.1002
512.9926	121.7861
513.1548	124.0947
513.317	126.4763
513.4792	129.7044
513.6414	128.7339
513.8035	124.6839
513.9657	120.6757
514.1279	121.8499
514.29	120.5719
514.4521	127.5278
514.6143	122.5244
514.7764	126.2206
514.9385	131.8874
515.1006	121.3819
515.2628	130.4348
515.4249	132.2512
515.587	136.3082
515.7491	135.7857
515.9111	130.4323
516.0732	140.658
516.2353	133.3034
