SPECTRUM DATA FILE
SpectrumCount:	1
PixelCount:	3648
UserName:	ToughBook User
SampleName:	
LightSource:	
Comments:	
DeviceName:	Qwave
DeviceManufacturer:	Broadcom
DeviceSerialNo:	11311

Name:	last spectrum
Date:	2024-05-02T14:43:12.1252885+02:00
ExposureTime:	0.02
TemporalAvg:	1
IntensityUnit:	normalizedCounts
CCDLoadLevel:	0.04836249
Temperature:	31.05875
DiagramColor:	200
ProcessingSteps:	335

Wavelength [nm]	Intensity1
334.421	9.014447
334.5891	9.165129
334.7573	7.896364
334.9254	5.379904
335.0935	6.910359
335.2616	6.137729
335.4297	9.75874
335.5978	6.509377
335.7659	5.766829
335.934	3.655209
336.1021	7.790102
336.2701	5.338307
336.4382	5.814113
336.6063	11.47836
336.7744	10.87542
336.9424	10.06088
337.1105	4.479759
337.2785	7.260984
337.4466	5.085569
337.6146	6.944337
337.7827	6.108227
337.9507	7.331653
338.1187	6.621261
338.2867	-0.3571742
338.4548	4.966675
338.6228	11.12371
338.7908	6.69702
338.9588	7.692978
339.1268	3.423997
339.2948	0.6684483
339.4628	1.427272
339.6308	8.780607
339.7988	15.71448
339.9667	10.56121
340.1347	6.896753
340.3027	7.626088
340.4707	7.172735
340.6386	3.66558
340.8066	3.05952
340.9745	4.359191
341.1425	1.351666
341.3104	5.802926
341.4784	7.172542
341.6463	5.822479
341.8142	5.77028
341.9821	6.917247
342.1501	5.284708
342.318	7.144593
342.4859	7.394207
342.6538	8.2281
342.8217	11.62841
342.9896	11.76928
343.1575	8.681554
343.3254	4.411101
343.4933	7.317231
343.6612	8.485005
343.829	2.526081
343.9969	9.977569
344.1648	7.266489
344.3326	9.319304
344.5005	6.468415
344.6683	6.286675
344.8362	5.428218
345.004	10.06628
345.1719	12.73017
345.3397	11.26566
345.5075	7.854648
345.6754	9.955444
345.8432	4.374591
346.011	3.452658
346.1788	8.81899
346.3466	5.219469
346.5144	6.221234
346.6822	4.421706
346.85	8.106537
347.0178	10.10738
347.1856	5.016526
347.3534	8.851111
347.5211	9.287363
347.6889	4.467818
347.8567	8.046501
348.0244	9.131677
348.1922	9.198335
348.3599	10.14731
348.5277	7.878352
348.6954	5.016942
348.8632	5.74021
349.0309	4.716657
349.1986	5.971169
349.3663	8.205037
349.5341	5.001789
349.7018	5.932034
349.8695	8.274453
350.0372	5.136753
350.2049	3.860875
350.3726	12.60581
350.5403	10.12241
350.7079	6.029901
350.8756	0.1290794
351.0433	5.53748
351.211	12.68257
351.3786	8.75681
351.5463	3.244929
351.714	7.328101
351.8816	11.69837
352.0493	5.54017
352.2169	7.833892
352.3846	4.447166
352.5522	6.121572
352.7198	9.261481
352.8875	9.862992
353.0551	7.027521
353.2227	12.70909
353.3903	9.464115
353.5579	3.991315
353.7255	3.009371
353.8931	8.428562
354.0607	6.539449
354.2283	8.327523
354.3958	7.577204
354.5634	9.234488
354.731	9.473072
354.8986	4.420977
355.0661	9.182884
355.2337	4.50594
355.4012	8.737289
355.5688	9.205899
355.7363	10.91212
355.9039	7.347607
356.0714	6.818073
356.239	6.797523
356.4065	7.095036
356.574	8.898848
356.7415	8.386575
356.909	4.982794
357.0765	10.58186
357.244	14.61691
357.4115	5.868851
357.579	9.298715
357.7465	6.157827
357.914	14.58333
358.0815	9.814242
358.249	6.276793
358.4164	10.73547
358.5839	11.23703
358.7513	7.879146
358.9188	14.61022
359.0862	7.358574
359.2537	13.347
359.4211	10.62155
359.5886	7.262954
359.756	4.998652
359.9234	6.794581
360.0909	8.691764
360.2583	10.80796
360.4257	6.314233
360.5931	7.568836
360.7605	11.75093
360.9279	10.04694
361.0953	6.270113
361.2627	11.1746
361.4301	12.39256
361.5974	5.758244
361.7648	9.185291
361.9322	8.384946
362.0995	2.53382
362.2669	7.002828
362.4343	8.866929
362.6016	7.552614
362.769	7.49657
362.9363	6.979765
363.1036	8.518477
363.271	9.786104
363.4383	9.13125
363.6056	8.176661
363.7729	10.10035
363.9402	10.95127
364.1075	9.918135
364.2748	6.343625
364.4421	8.730253
364.6094	11.60793
364.7767	9.40958
364.944	5.491434
365.1113	11.36942
365.2786	12.9444
365.4458	10.132
365.6131	11.60104
365.7803	11.40843
365.9476	6.987229
366.1148	9.566616
366.2821	8.927365
366.4493	11.12934
366.6166	7.647559
366.7838	7.889897
366.951	7.124236
367.1182	6.984609
367.2855	9.221871
367.4527	9.01836
367.6199	6.721554
367.7871	10.36855
367.9543	11.70778
368.1215	9.289845
368.2886	6.079973
368.4558	8.947928
368.623	12.28801
368.7902	11.96879
368.9573	10.69802
369.1245	10.77949
369.2917	11.36278
369.4588	14.04868
369.6259	10.45424
369.7931	11.68742
369.9602	8.621197
370.1274	9.855839
370.2945	6.014172
370.4616	7.923038
370.6287	12.39082
370.7958	11.64158
370.963	8.312378
371.1301	15.3236
371.2971	12.00645
371.4643	14.14209
371.6313	16.03417
371.7984	10.71038
371.9655	6.626091
372.1326	8.639822
372.2997	10.78451
372.4667	8.217362
372.6338	7.744107
372.8008	10.63679
372.9679	8.525752
373.1349	10.59503
373.3019	7.568547
373.469	7.782277
373.636	9.049869
373.803	11.68069
373.9701	11.03826
374.1371	8.608898
374.3041	8.859442
374.4711	13.71402
374.6381	12.41411
374.8051	13.10043
374.9721	13.70959
375.1391	6.08953
375.3061	10.27606
375.473	14.15499
375.64	12.43945
375.8069	8.915006
375.9739	15.98686
376.1409	13.15957
376.3078	13.82598
376.4748	8.724064
376.6417	8.842261
376.8087	11.96356
376.9756	13.44852
377.1425	11.98279
377.3094	13.67165
377.4763	10.2429
377.6432	8.790342
377.8102	7.942542
377.9771	7.539741
378.144	10.94601
378.3109	13.10049
378.4777	11.27117
378.6446	8.759061
378.8115	8.959951
378.9784	8.370007
379.1452	9.517892
379.3121	14.00262
379.4789	8.897559
379.6458	9.167285
379.8127	11.54824
379.9795	12.97069
380.1463	14.09643
380.3131	8.2203
380.48	5.893523
380.6468	7.447442
380.8136	10.07828
380.9804	9.090312
381.1472	14.82542
381.314	11.99767
381.4808	10.41899
381.6476	9.746323
381.8144	10.3145
381.9812	9.50127
382.148	13.8472
382.3147	8.316383
382.4815	10.08824
382.6483	9.145146
382.815	11.23287
382.9818	11.69116
383.1485	10.04724
383.3153	10.87593
383.482	7.715144
383.6487	12.82811
383.8155	10.00342
383.9822	12.72371
384.1489	9.620459
384.3156	7.310943
384.4823	17.45406
384.649	16.28876
384.8157	13.58966
384.9824	12.67785
385.1491	15.22816
385.3158	11.352
385.4825	11.9423
385.6491	13.25547
385.8158	11.99164
385.9825	10.64521
386.1491	15.165
386.3157	14.95132
386.4824	14.78835
386.649	15.48826
386.8157	9.540148
386.9823	12.09757
387.1489	11.80105
387.3156	20.30699
387.4821	17.66596
387.6488	12.98149
387.8154	12.39633
387.982	12.53416
388.1486	15.3197
388.3152	15.30785
388.4818	12.90876
388.6483	11.84341
388.8149	9.702093
388.9815	10.211
389.148	11.12277
389.3146	13.77382
389.4811	11.7117
389.6477	12.08491
389.8142	11.91057
389.9808	11.86479
390.1473	14.85502
390.3138	16.50366
390.4804	20.47761
390.6469	16.17483
390.8134	17.62216
390.9799	16.77196
391.1464	15.36324
391.3129	17.90055
391.4794	15.26408
391.6459	18.38611
391.8124	18.52655
391.9789	13.43242
392.1453	11.44649
392.3118	14.85834
392.4782	15.60356
392.6447	9.273888
392.8112	14.77841
392.9776	15.6413
393.144	16.23552
393.3105	10.04459
393.4769	10.7689
393.6433	14.56094
393.8098	15.30047
393.9762	14.94354
394.1426	16.75473
394.309	18.15454
394.4754	13.72816
394.6418	15.49362
394.8082	19.86565
394.9746	18.9477
395.141	18.15083
395.3073	13.7227
395.4737	14.41012
395.64	13.30574
395.8064	9.078692
395.9728	15.05054
396.1391	12.5501
396.3055	12.86557
396.4718	12.81145
396.6381	14.21647
396.8045	13.94242
396.9708	9.612626
397.1371	12.7747
397.3034	14.80826
397.4697	19.84281
397.636	18.37891
397.8023	14.20061
397.9686	16.50434
398.1349	20.06289
398.3012	22.28121
398.4675	23.21551
398.6337	18.09315
398.8	18.90639
398.9662	19.18565
399.1325	22.02268
399.2988	26.37673
399.465	23.61126
399.6313	21.75791
399.7975	19.67728
399.9637	19.34224
400.1299	16.60088
400.2961	22.45464
400.4624	20.20971
400.6286	18.65315
400.7948	25.73212
400.961	23.55993
401.1272	21.40769
401.2934	18.60989
401.4595	23.06855
401.6257	22.28904
401.7919	21.31698
401.9581	20.60889
402.1242	21.82611
402.2904	15.23923
402.4565	19.06632
402.6227	15.16778
402.7888	20.06274
402.955	23.86025
403.1211	21.24029
403.2872	18.98615
403.4533	18.91224
403.6194	23.68141
403.7856	22.44709
403.9517	18.13184
404.1177	21.93138
404.2838	15.81326
404.4499	18.24275
404.616	17.73169
404.7821	21.60136
404.9482	21.03141
405.1142	23.21077
405.2803	22.73003
405.4464	22.17321
405.6124	26.01895
405.7784	19.21213
405.9445	20.29849
406.1105	18.94844
406.2766	18.7719
406.4426	21.26446
406.6086	17.28741
406.7746	20.61575
406.9406	22.30707
407.1066	19.71492
407.2726	18.1858
407.4386	18.03206
407.6046	23.92277
407.7706	26.39129
407.9366	22.71202
408.1025	19.55487
408.2685	22.92479
408.4344	29.15169
408.6004	27.94586
408.7664	29.15744
408.9323	26.9309
409.0983	27.98281
409.2642	26.95
409.4301	27.56812
409.596	28.28071
409.762	21.12476
409.9279	21.91509
410.0938	17.73224
410.2597	23.21163
410.4256	23.66392
410.5915	22.99069
410.7574	29.86145
410.9232	28.33651
411.0891	25.95482
411.255	23.94487
411.4209	28.54474
411.5867	28.20428
411.7526	26.62064
411.9184	30.36801
412.0843	30.68806
412.2501	29.86929
412.4159	32.54143
412.5818	32.77447
412.7476	27.99317
412.9134	25.92757
413.0792	22.41014
413.245	23.13938
413.4108	25.23145
413.5766	32.93739
413.7424	30.14238
413.9082	29.03514
414.074	29.95703
414.2397	22.92602
414.4055	29.30084
414.5713	24.01114
414.737	33.77154
414.9028	31.5247
415.0685	30.56016
415.2343	24.27563
415.4	27.94586
415.5658	24.98526
415.7315	32.73342
415.8972	28.84311
416.0629	31.50348
416.2286	32.80893
416.3943	28.48864
416.56	30.3178
416.7257	27.07802
416.8914	27.92053
417.0571	27.25093
417.2228	24.96655
417.3884	23.71585
417.5541	23.24871
417.7198	25.52193
417.8854	26.46889
418.0511	26.49829
418.2167	25.85971
418.3824	27.32376
418.548	27.63107
418.7136	30.12064
418.8792	29.62608
419.0449	27.83021
419.2105	31.18936
419.3761	31.3489
419.5417	31.30482
419.7073	26.95916
419.8729	29.30234
420.0385	26.14989
420.204	30.80449
420.3696	27.20521
420.5352	26.68459
420.7007	30.18428
420.8663	35.28153
421.0319	32.17313
421.1974	30.53643
421.3629	27.98822
421.5285	28.81951
421.694	29.84188
421.8595	34.69659
422.0251	36.54807
422.1906	38.02738
422.3561	30.787
422.5216	27.27877
422.6871	23.95079
422.8526	31.51372
423.0181	31.59308
423.1835	34.81675
423.349	35.251
423.5145	36.41611
423.68	35.04337
423.8454	33.08101
424.0109	32.81229
424.1763	32.23601
424.3418	31.62259
424.5072	37.35334
424.6726	37.43219
424.838	34.10897
425.0035	33.5997
425.1689	35.40875
425.3343	33.21504
425.4997	35.83905
425.6651	37.98622
425.8305	41.51735
425.9959	33.79585
426.1613	29.4124
426.3267	36.15078
426.492	37.35213
426.6574	39.11552
426.8228	37.15934
426.9881	34.50953
427.1534	30.27361
427.3188	30.75762
427.4841	35.19794
427.6495	32.64565
427.8148	36.13359
427.9801	33.2151
428.1454	34.8256
428.3107	37.81432
428.476	36.28784
428.6414	35.04429
428.8066	33.0245
428.9719	32.6348
429.1372	40.62054
429.3025	37.21711
429.4678	36.89454
429.633	35.07412
429.7983	35.52735
429.9636	33.56055
430.1288	29.13492
430.294	34.00648
430.4593	33.27743
430.6245	34.46973
430.7897	29.18351
430.955	26.9476
431.1202	31.97133
431.2854	32.59547
431.4506	42.76224
431.6158	40.63026
431.781	43.95296
431.9462	48.8849
432.1114	48.04829
432.2766	40.85863
432.4417	39.69395
432.6069	37.18442
432.772	40.33857
432.9372	40.83254
433.1024	44.4967
433.2675	43.09555
433.4326	39.15701
433.5977	36.76075
433.7629	39.19247
433.928	35.35935
434.0931	33.58235
434.2582	39.24426
434.4233	38.06248
434.5884	38.82054
434.7535	42.62101
434.9186	46.82248
435.0837	41.3818
435.2488	38.99281
435.4138	41.09087
435.5789	39.58753
435.744	42.24473
435.909	45.79785
436.0741	46.72158
436.2391	44.26467
436.4042	47.25596
436.5692	42.50167
436.7342	44.9401
436.8992	42.92258
437.0643	49.68951
437.2293	46.34612
437.3943	48.98626
437.5593	43.4282
437.7243	43.54497
437.8893	45.74811
438.0542	42.77012
438.2192	42.27799
438.3842	42.03603
438.5491	43.35119
438.7141	43.91959
438.8791	45.17025
439.044	43.58834
439.209	45.25642
439.3739	51.70503
439.5388	45.95236
439.7037	49.72478
439.8687	54.24968
440.0336	51.36037
440.1985	45.58926
440.3634	47.37702
440.5283	46.26884
440.6932	42.19069
440.8581	44.94313
441.0229	48.4622
441.1878	55.2163
441.3527	50.60913
441.5175	51.11971
441.6824	55.13829
441.8472	53.37704
442.0121	58.63417
442.1769	57.92812
442.3418	53.78145
442.5066	52.9201
442.6714	56.17932
442.8362	55.58267
443.001	54.80641
443.1659	53.33566
443.3307	47.0731
443.4955	46.59671
443.6602	49.85176
443.825	58.96805
443.9898	62.99064
444.1546	51.78542
444.3193	52.08405
444.4841	56.38636
444.6488	56.29731
444.8136	51.77195
444.9783	54.52623
445.1431	55.13218
445.3078	55.83396
445.4725	60.26884
445.6372	57.66427
445.802	52.99399
445.9667	50.11727
446.1314	54.32009
446.2961	60.29094
446.4608	60.86738
446.6255	56.3474
446.7901	52.64351
446.9548	57.70396
447.1195	56.98698
447.2841	59.07926
447.4488	60.64936
447.6134	66.89385
447.7781	68.60643
447.9427	59.81699
448.1074	55.03222
448.272	61.251
448.4366	61.79324
448.6012	63.86808
448.7658	60.83762
448.9305	56.73461
449.095	58.25864
449.2596	54.54377
449.4242	59.15142
449.5888	58.45261
449.7534	55.26169
449.9179	58.45364
450.0825	57.95271
450.2471	63.03182
450.4116	64.01009
450.5762	67.88921
450.7407	61.46852
450.9052	63.39201
451.0698	65.63054
451.2343	68.18809
451.3988	67.58294
451.5633	66.83982
451.7278	67.40893
451.8923	67.65157
452.0568	63.28009
452.2213	65.39085
452.3858	64.74317
452.5503	65.23512
452.7148	63.07743
452.8792	57.76724
453.0437	59.25322
453.2081	58.10972
453.3726	60.18829
453.537	60.81883
453.7015	61.01112
453.8659	69.18944
454.0303	63.2709
454.1947	60.77661
454.3592	65.82382
454.5236	68.68713
454.688	64.91017
454.8524	61.77396
455.0168	63.98249
455.1811	69.3687
455.3455	65.71489
455.5099	62.9104
455.6743	69.27679
455.8386	65.37039
456.003	67.11056
456.1673	70.84318
456.3317	61.80622
456.496	66.7772
456.6603	68.43307
456.8246	65.30015
456.989	66.44395
457.1533	66.86774
457.3176	70.52288
457.4819	71.19712
457.6462	68.38138
457.8105	74.76558
457.9748	66.61735
458.1391	69.69588
458.3033	68.74814
458.4676	71.82404
458.6319	68.84979
458.7961	65.93358
458.9604	65.46471
459.1246	65.89156
459.2888	69.55515
459.4531	71.97541
459.6173	70.54643
459.7815	69.0026
459.9457	65.20955
460.11	69.74519
460.2741	70.96175
460.4384	70.58895
460.6025	68.38619
460.7667	68.13774
460.9309	72.81532
461.0951	72.4071
461.2592	67.79022
461.4234	65.16276
461.5876	72.36369
461.7517	70.86167
461.9159	65.67332
462.08	71.77242
462.2441	74.47426
462.4082	70.48906
462.5724	75.56827
462.7365	70.89728
462.9006	68.80248
463.0647	74.43845
463.2288	73.17677
463.3929	73.59449
463.557	69.16956
463.721	66.32614
463.8851	66.50829
464.0492	65.54479
464.2132	65.12268
464.3773	65.32507
464.5414	63.78284
464.7054	69.98667
464.8694	66.78153
465.0334	69.46293
465.1975	76.5078
465.3615	71.99126
465.5255	68.42689
465.6895	67.01273
465.8535	69.04457
466.0175	69.84114
466.1815	72.10452
466.3455	70.86218
466.5095	67.64495
466.6734	68.59502
466.8374	65.856
467.0014	66.81721
467.1653	70.48754
467.3293	72.70425
467.4932	67.91699
467.6571	71.50233
467.8211	69.05965
467.985	71.35621
468.1489	71.00009
468.3128	72.32891
468.4767	72.31021
468.6406	75.44791
468.8045	72.75086
468.9684	73.5423
469.1323	74.22128
469.2962	77.56055
469.46	79.76353
469.6239	73.33727
469.7878	70.9582
469.9516	73.27448
470.1154	66.55508
470.2793	67.41827
470.4431	68.53529
470.607	65.75898
470.7708	70.56934
470.9346	72.7939
471.0984	76.538
471.2622	76.57376
471.426	74.62265
471.5898	74.5654
471.7536	77.33473
471.9174	79.23408
472.0811	75.0454
472.2449	75.42175
472.4087	80.91937
472.5724	79.20701
472.7362	77.93977
472.8999	78.21177
473.0637	76.32749
473.2274	73.98041
473.3911	72.65723
473.5548	73.62154
473.7185	69.97021
473.8822	71.52309
474.0459	79.10036
474.2096	79.25324
474.3733	70.01743
474.537	74.55014
474.7007	78.65604
474.8643	81.80721
475.028	83.11295
475.1917	76.03139
475.3553	76.1655
475.519	75.20355
475.6826	75.28111
475.8463	74.58593
476.0099	69.65697
476.1735	71.67054
476.3371	71.5633
476.5007	72.19435
476.6643	73.31805
476.8279	72.20377
476.9915	71.4268
477.1551	79.17259
477.3187	80.43231
477.4823	77.53854
477.6458	80.07249
477.8094	72.91013
477.9729	76.56104
478.1365	77.74892
478.3	80.22391
478.4636	77.89944
478.6271	77.81686
478.7906	79.30866
478.9541	77.08183
479.1176	73.72958
479.2812	73.52174
479.4447	78.04016
479.6082	81.78828
479.7716	77.71103
479.9351	76.14759
480.0986	79.27107
480.2621	79.43861
480.4255	80.30425
480.589	78.51845
480.7524	75.97015
480.9159	74.13622
481.0793	74.99996
481.2428	71.48547
481.4062	76.90176
481.5696	79.70212
481.733	81.06653
481.8964	77.10797
482.0598	75.09811
482.2232	76.25794
482.3866	74.86021
482.55	77.75067
482.7134	77.85151
482.8768	76.09024
483.0401	76.23466
483.2035	71.07563
483.3668	77.60019
483.5302	84.78675
483.6935	79.79249
483.8568	76.37428
484.0202	76.68394
484.1835	80.68307
484.3468	75.98077
484.5101	74.66177
484.6734	77.74902
484.8367	77.58659
485	75.84166
485.1633	79.04167
485.3266	75.12329
485.4899	73.85652
485.6531	70.07764
485.8164	69.69207
485.9796	66.1569
486.1429	62.62008
486.3061	58.56564
486.4694	65.78896
486.6326	69.99546
486.7958	67.34407
486.959	72.73931
487.1223	74.70727
487.2855	72.66802
487.4486	73.37377
487.6118	78.03358
487.775	82.79612
487.9382	80.83733
488.1014	82.48315
488.2646	78.11024
488.4277	79.80308
488.5909	74.95103
488.754	72.83904
488.9171	75.47878
489.0803	76.4118
489.2434	71.04162
489.4066	76.16304
489.5697	82.70319
489.7328	81.96406
489.8959	82.79922
490.059	77.29105
490.2221	82.92976
490.3852	81.7674
490.5482	76.84099
490.7113	81.2132
490.8744	84.7169
491.0374	78.83282
491.2005	80.35392
491.3636	83.91183
491.5266	83.00503
491.6896	79.39864
491.8527	71.2378
492.0157	69.97117
492.1787	74.45123
492.3417	78.8433
492.5047	79.74454
492.6677	84.14809
492.8307	86.9976
492.9937	88.62605
493.1567	87.08578
493.3196	84.0259
493.4826	81.28497
493.6456	79.79164
493.8085	75.44331
493.9715	76.32738
494.1344	82.8372
494.2974	77.36733
494.4603	82.97089
494.6232	77.38941
494.7861	82.60363
494.949	84.59903
495.1119	85.56982
495.2748	87.8996
495.4377	86.07999
495.6006	81.3509
495.7635	78.28338
495.9264	84.4129
496.0892	84.41982
496.2521	83.99732
496.4149	86.99034
496.5778	86.89418
496.7407	83.88745
496.9035	85.22372
497.0663	89.36452
497.2291	84.36555
497.3919	83.06088
497.5547	82.9128
497.7176	87.36827
497.8804	84.77432
498.0432	84.13296
498.2059	81.34378
498.3687	80.05331
498.5315	83.76504
498.6942	89.87537
498.857	90.14191
499.0198	90.45719
499.1825	84.74321
499.3452	90.25044
499.508	88.67206
499.6707	85.34052
499.8334	92.21508
499.9962	86.70956
500.1589	83.07888
500.3216	85.8706
500.4843	83.47736
500.6469	86.66146
500.8096	88.57421
500.9723	90.73016
501.135	82.27755
501.2976	86.37798
501.4603	90.91145
501.623	86.05751
501.7856	78.16872
501.9482	86.28663
502.1109	87.14176
502.2735	87.72455
502.4361	87.39657
502.5987	88.88527
502.7614	84.32999
502.924	91.85075
503.0865	94.42364
503.2491	96.80087
503.4117	95.58469
503.5743	90.55732
503.7368	91.91893
503.8994	95.12419
504.062	88.48805
504.2245	87.58964
504.3871	97.84331
504.5496	97.92266
504.7121	99.7552
504.8746	99.76257
505.0372	93.65163
505.1997	97.68511
505.3622	93.64017
505.5247	101.7855
505.6872	102.3117
505.8497	103.6328
506.0121	105.6294
506.1746	106.2667
506.3371	99.96073
506.4995	97.90074
506.662	100.4374
506.8244	100.7641
506.9869	102.172
507.1493	100.4919
507.3117	97.13773
507.4742	99.31712
507.6366	97.89017
507.799	96.14969
507.9614	101.7399
508.1238	101.3614
508.2862	98.8781
508.4485	109.4873
508.6109	105.9717
508.7733	114.416
508.9357	114.3876
509.098	111.8712
509.2604	105.285
509.4227	109.7083
509.5851	110.2383
509.7474	104.5704
509.9097	101.9462
510.072	102.874
510.2343	105.2843
510.3966	108.3982
510.5589	111.9118
510.7212	110.9794
510.8835	110.102
511.0458	108.4089
511.2081	108.6193
511.3703	114.292
511.5326	113.1604
511.6949	110.5039
511.8571	114.3349
512.0193	112.0298
512.1816	116.2446
512.3438	109.3139
512.506	113.2576
512.6682	119.3352
512.8304	111.7441
512.9926	109.4104
513.1548	118.6082
513.317	112.0636
513.4792	115.6857
513.6414	113.5112
513.8035	114.6753
513.9657	115.4263
514.1279	112.633
514.29	118.2569
514.4521	121.5004
514.6143	120.1157
514.7764	120.3858
514.9385	118.3299
515.1006	126.6594
515.2628	126.1135
515.4249	123.4963
515.587	122.0052
515.7491	120.5271
515.9111	128.8546
516.0732	131.5891
516.2353	132.8775
