SPECTRUM DATA FILE
SpectrumCount:	1
PixelCount:	3648
UserName:	ToughBook User
SampleName:	
LightSource:	
Comments:	
DeviceName:	Qwave
DeviceManufacturer:	Broadcom
DeviceSerialNo:	11311

Name:	last spectrum
Date:	2024-05-02T14:41:27.2437029+02:00
ExposureTime:	0.02
TemporalAvg:	1
IntensityUnit:	normalizedCounts
CCDLoadLevel:	0.0550004
Temperature:	30.95038
DiagramColor:	200
ProcessingSteps:	335

Wavelength [nm]	Intensity1
334.421	9.801817
334.5891	10.33687
334.7573	8.28314
334.9254	7.141418
335.0935	1.22405
335.2616	4.615367
335.4297	1.366832
335.5978	4.934506
335.7659	6.933877
335.934	4.26562
336.1021	5.789584
336.2701	3.030216
336.4382	4.750667
336.6063	4.330274
336.7744	5.672659
336.9424	4.690184
337.1105	3.287994
337.2785	2.477154
337.4466	4.603884
337.6146	6.248932
337.7827	2.023854
337.9507	3.152292
338.1187	6.879582
338.2867	3.454452
338.4548	4.934225
338.6228	10.82345
338.7908	5.186546
338.9588	1.966161
339.1268	4.73868
339.2948	7.205397
339.4628	3.150136
339.6308	5.152193
339.7988	9.16065
339.9667	6.039351
340.1347	4.09056
340.3027	4.48983
340.4707	3.198468
340.6386	8.017921
340.8066	6.52722
340.9745	7.78463
341.1425	4.437947
341.3104	3.077394
341.4784	7.896377
341.6463	4.8886
341.8142	4.955369
341.9821	6.892434
342.1501	6.434999
342.318	7.766175
342.4859	8.943799
342.6538	6.551144
342.8217	4.858987
342.9896	6.927155
343.1575	8.026482
343.3254	9.92809
343.4933	8.734982
343.6612	4.968081
343.829	5.777936
343.9969	6.825508
344.1648	6.696558
344.3326	4.69605
344.5005	2.888365
344.6683	2.441677
344.8362	5.481522
345.004	9.034145
345.1719	9.656592
345.3397	8.6228
345.5075	7.213653
345.6754	4.921354
345.8432	6.922149
346.011	5.904153
346.1788	8.221453
346.3466	6.047697
346.5144	4.116148
346.6822	6.908184
346.85	7.124098
347.0178	6.165945
347.1856	9.673135
347.3534	4.155727
347.5211	4.585755
347.6889	4.127941
347.8567	2.069812
348.0244	5.164127
348.1922	7.746367
348.3599	6.323999
348.5277	7.823921
348.6954	5.004982
348.8632	6.451247
349.0309	5.996181
349.1986	1.821214
349.3663	4.341314
349.5341	6.255643
349.7018	9.776423
349.8695	8.884995
350.0372	5.815028
350.2049	7.026113
350.3726	10.20333
350.5403	5.797872
350.7079	8.746965
350.8756	1.709091
351.0433	1.34265
351.211	5.759457
351.3786	5.249964
351.5463	4.420307
351.714	5.45373
351.8816	2.527942
352.0493	6.73047
352.2169	3.272669
352.3846	-0.7445156
352.5522	5.118573
352.7198	5.752621
352.8875	8.615219
353.0551	9.625006
353.2227	7.343259
353.3903	6.550038
353.5579	7.39418
353.7255	12.38603
353.8931	10.32246
354.0607	7.633103
354.2283	7.132447
354.3958	10.8514
354.5634	10.02079
354.731	13.80421
354.8986	12.65374
355.0661	9.905156
355.2337	10.14629
355.4012	3.79193
355.5688	6.947027
355.7363	9.556075
355.9039	8.32771
356.0714	5.955824
356.239	9.89309
356.4065	7.352244
356.574	8.021609
356.7415	2.696232
356.909	4.337222
357.0765	4.576465
357.244	4.175652
357.4115	7.184022
357.579	5.890133
357.7465	10.69497
357.914	4.361814
358.0815	7.014826
358.249	6.394032
358.4164	4.089065
358.5839	10.77993
358.7513	9.254463
358.9188	5.48451
359.0862	5.060374
359.2537	3.937358
359.4211	6.778122
359.5886	6.115144
359.756	2.65914
359.9234	9.528205
360.0909	11.13727
360.2583	9.819265
360.4257	4.694315
360.5931	6.831799
360.7605	6.335614
360.9279	4.52599
361.0953	9.339259
361.2627	4.048954
361.4301	7.411802
361.5974	6.100533
361.7648	7.779985
361.9322	6.96387
362.0995	3.982234
362.2669	6.188141
362.4343	12.72123
362.6016	10.95739
362.769	6.846205
362.9363	8.625978
363.1036	6.95435
363.271	7.344881
363.4383	7.956343
363.6056	9.980291
363.7729	11.21754
363.9402	12.82115
364.1075	9.187871
364.2748	4.34292
364.4421	6.529057
364.6094	10.47933
364.7767	14.68821
364.944	8.96017
365.1113	8.586736
365.2786	10.78045
365.4458	8.659218
365.6131	9.502991
365.7803	8.013085
365.9476	13.59148
366.1148	9.459543
366.2821	11.17928
366.4493	12.19421
366.6166	11.56345
366.7838	9.460299
366.951	6.981655
367.1182	9.576942
367.2855	9.483467
367.4527	9.006073
367.6199	5.953408
367.7871	8.461998
367.9543	8.819953
368.1215	7.458054
368.2886	5.814108
368.4558	11.7669
368.623	9.458687
368.7902	9.702497
368.9573	11.88268
369.1245	11.88397
369.2917	8.864202
369.4588	10.21019
369.6259	11.07318
369.7931	9.86044
369.9602	7.768226
370.1274	13.93442
370.2945	10.45787
370.4616	10.92995
370.6287	8.933488
370.7958	10.46297
370.963	9.048786
371.1301	14.42484
371.2971	14.64469
371.4643	7.785583
371.6313	11.17343
371.7984	5.706067
371.9655	5.614263
372.1326	13.55344
372.2997	16.00551
372.4667	12.28754
372.6338	8.925824
372.8008	10.52968
372.9679	8.683144
373.1349	11.92891
373.3019	6.274613
373.469	10.42722
373.636	12.3085
373.803	10.0707
373.9701	11.62584
374.1371	8.441896
374.3041	11.26848
374.4711	11.44912
374.6381	8.980189
374.8051	2.465577
374.9721	7.856025
375.1391	13.79496
375.3061	14.556
375.473	11.79062
375.64	10.39624
375.8069	9.260835
375.9739	10.81397
376.1409	5.227627
376.3078	12.65481
376.4748	12.2297
376.6417	9.625614
376.8087	10.79814
376.9756	6.934189
377.1425	13.57872
377.3094	10.01829
377.4763	10.72258
377.6432	10.4555
377.8102	7.290076
377.9771	11.751
378.144	15.58601
378.3109	12.64174
378.4777	11.87093
378.6446	10.61325
378.8115	11.03895
378.9784	15.7383
379.1452	14.88346
379.3121	9.72942
379.4789	9.339999
379.6458	10.12637
379.8127	7.230637
379.9795	7.855832
380.1463	10.86577
380.3131	10.55855
380.48	11.52588
380.6468	10.66179
380.8136	9.217237
380.9804	14.21119
381.1472	11.13221
381.314	10.88787
381.4808	11.07564
381.6476	12.14475
381.8144	11.68189
381.9812	12.43334
382.148	11.37217
382.3147	11.43073
382.4815	14.92079
382.6483	9.882071
382.815	8.280383
382.9818	9.679278
383.1485	9.235514
383.3153	10.27446
383.482	11.26372
383.6487	10.53072
383.8155	7.524792
383.9822	10.51514
384.1489	9.097477
384.3156	9.247108
384.4823	15.32613
384.649	16.47485
384.8157	12.51219
384.9824	15.74689
385.1491	9.316242
385.3158	17.42111
385.4825	15.10637
385.6491	12.25036
385.8158	13.83226
385.9825	12.14942
386.1491	11.4916
386.3157	8.276502
386.4824	7.12129
386.649	8.145702
386.8157	7.651974
386.9823	11.6625
387.1489	15.48099
387.3156	13.26441
387.4821	11.63278
387.6488	13.00875
387.8154	12.17971
387.982	7.877663
388.1486	13.71342
388.3152	15.24406
388.4818	16.54388
388.6483	14.85805
388.8149	13.19344
388.9815	14.16614
389.148	16.09456
389.3146	12.97496
389.4811	12.38741
389.6477	11.78418
389.8142	10.70391
389.9808	13.21116
390.1473	9.61291
390.3138	11.84616
390.4804	14.16815
390.6469	12.91883
390.8134	12.89491
390.9799	15.00557
391.1464	12.78113
391.3129	15.73051
391.4794	15.23489
391.6459	14.34877
391.8124	14.09165
391.9789	10.2314
392.1453	11.80508
392.3118	14.58331
392.4782	18.22745
392.6447	15.18636
392.8112	8.448405
392.9776	9.659635
393.144	12.2051
393.3105	13.44351
393.4769	7.335629
393.6433	9.540535
393.8098	9.305895
393.9762	12.58534
394.1426	15.73475
394.309	12.19899
394.4754	18.1706
394.6418	22.43651
394.8082	9.489114
394.9746	15.40402
395.141	19.1023
395.3073	18.10973
395.4737	11.43866
395.64	13.85055
395.8064	15.3167
395.9728	12.74298
396.1391	5.60989
396.3055	12.06625
396.4718	14.25844
396.6381	12.10108
396.8045	12.34859
396.9708	9.069164
397.1371	12.97956
397.3034	15.26996
397.4697	14.15942
397.636	20.27131
397.8023	19.95753
397.9686	15.6697
398.1349	19.01941
398.3012	22.46497
398.4675	19.33242
398.6337	19.85073
398.8	21.60347
398.9662	23.15342
399.1325	20.3701
399.2988	20.432
399.465	16.27693
399.6313	21.46511
399.7975	18.05354
399.9637	17.47421
400.1299	21.03141
400.2961	14.93473
400.4624	22.0246
400.6286	19.82883
400.7948	20.98149
400.961	23.32449
401.1272	23.3697
401.2934	14.61509
401.4595	17.62936
401.6257	19.87662
401.7919	23.07496
401.9581	20.39195
402.1242	25.83014
402.2904	24.24777
402.4565	19.98143
402.6227	18.17626
402.7888	21.63211
402.955	18.01192
403.1211	20.28088
403.2872	17.73869
403.4533	22.37856
403.6194	22.32249
403.7856	16.70538
403.9517	20.23551
404.1177	20.97825
404.2838	18.70049
404.4499	16.77081
404.616	18.81389
404.7821	17.68863
404.9482	23.22293
405.1142	22.17826
405.2803	24.36613
405.4464	23.15335
405.6124	24.04617
405.7784	18.59687
405.9445	23.40045
406.1105	24.17566
406.2766	24.99232
406.4426	22.98566
406.6086	21.34468
406.7746	20.72216
406.9406	23.89006
407.1066	24.78903
407.2726	23.09084
407.4386	23.29095
407.6046	26.60507
407.7706	23.97196
407.9366	20.34691
408.1025	24.9885
408.2685	25.77357
408.4344	22.32965
408.6004	21.56843
408.7664	26.70256
408.9323	32.76562
409.0983	28.94739
409.2642	25.68749
409.4301	26.80099
409.596	30.19986
409.762	27.48173
409.9279	26.52719
410.0938	20.39316
410.2597	23.93287
410.4256	21.34295
410.5915	26.72923
410.7574	27.2307
410.9232	33.37825
411.0891	29.30344
411.255	36.226
411.4209	31.71886
411.5867	28.93712
411.7526	29.76864
411.9184	26.67707
412.0843	22.74361
412.2501	24.39587
412.4159	31.83046
412.5818	30.18329
412.7476	30.59564
412.9134	31.8475
413.0792	33.91632
413.245	33.94942
413.4108	34.34043
413.5766	34.01022
413.7424	30.46509
413.9082	31.7113
414.074	31.51179
414.2397	29.89841
414.4055	26.29939
414.5713	29.14531
414.737	25.39712
414.9028	32.04549
415.0685	32.63648
415.2343	30.03613
415.4	30.00211
415.5658	30.2876
415.7315	30.62719
415.8972	28.11951
416.0629	29.16059
416.2286	31.81738
416.3943	33.04163
416.56	30.76175
416.7257	30.05858
416.8914	31.59731
417.0571	27.06556
417.2228	29.0743
417.3884	28.99106
417.5541	29.89555
417.7198	31.3344
417.8854	30.96847
418.0511	32.2693
418.2167	28.92661
418.3824	27.83942
418.548	30.83219
418.7136	31.50121
418.8792	32.90657
419.0449	36.73335
419.2105	35.46185
419.3761	36.84641
419.5417	28.12286
419.7073	28.54023
419.8729	32.64029
420.0385	32.27678
420.204	35.91821
420.3696	34.12268
420.5352	32.4781
420.7007	35.25247
420.8663	36.47148
421.0319	41.74509
421.1974	35.60884
421.3629	31.62583
421.5285	37.41607
421.694	38.13779
421.8595	36.16539
422.0251	31.84198
422.1906	39.43833
422.3561	39.44431
422.5216	32.97139
422.6871	34.35587
422.8526	35.38897
423.0181	37.23463
423.1835	36.1667
423.349	41.0804
423.5145	34.9434
423.68	36.62666
423.8454	40.54038
424.0109	35.98844
424.1763	37.64629
424.3418	40.26517
424.5072	40.2962
424.6726	42.33239
424.838	41.84692
425.0035	40.03542
425.1689	36.03819
425.3343	38.95055
425.4997	32.00606
425.6651	35.52744
425.8305	35.03881
425.9959	36.89425
426.1613	36.3126
426.3267	41.00406
426.492	39.31423
426.6574	38.85394
426.8228	40.96547
426.9881	38.59926
427.1534	39.63157
427.3188	39.06952
427.4841	34.85474
427.6495	36.87544
427.8148	35.55516
427.9801	39.79972
428.1454	39.90617
428.3107	35.2191
428.476	41.65949
428.6414	44.80902
428.8066	40.27557
428.9719	39.45937
429.1372	41.70174
429.3025	40.11757
429.4678	42.39368
429.633	39.80212
429.7983	36.67289
429.9636	35.30791
430.1288	31.77303
430.294	29.55482
430.4593	36.77938
430.6245	34.4635
430.7897	30.13782
430.955	30.32195
431.1202	29.28842
431.2854	38.94878
431.4506	41.3727
431.6158	43.11415
431.781	43.93369
431.9462	43.72618
432.1114	41.8501
432.2766	41.83168
432.4417	38.08433
432.6069	32.74931
432.772	39.31936
432.9372	43.70261
433.1024	44.79877
433.2675	43.63425
433.4326	45.6351
433.5977	47.24858
433.7629	43.72308
433.928	40.39298
434.0931	38.21839
434.2582	44.10076
434.4233	41.86014
434.5884	45.41245
434.7535	47.83841
434.9186	43.42889
435.0837	44.41516
435.2488	47.79856
435.4138	45.80526
435.5789	40.8342
435.744	48.68231
435.909	51.80381
436.0741	50.62342
436.2391	51.00289
436.4042	49.08484
436.5692	51.22705
436.7342	48.8641
436.8992	51.55221
437.0643	50.41082
437.2293	48.17633
437.3943	53.47098
437.5593	46.39681
437.7243	45.1602
437.8893	50.3862
438.0542	53.83694
438.2192	52.20221
438.3842	44.7098
438.5491	44.38076
438.7141	50.29252
438.8791	52.414
439.044	52.80015
439.209	51.09495
439.3739	53.42485
439.5388	51.61707
439.7037	54.85392
439.8687	53.6967
440.0336	54.64843
440.1985	56.87598
440.3634	54.00572
440.5283	51.97111
440.6932	52.39207
440.8581	56.17197
441.0229	55.96166
441.1878	55.52129
441.3527	59.77172
441.5175	59.76019
441.6824	54.89051
441.8472	60.58206
442.0121	57.87111
442.1769	58.84313
442.3418	56.44305
442.5066	51.98272
442.6714	60.14754
442.8362	58.94909
443.001	62.83051
443.1659	55.2104
443.3307	57.66711
443.4955	54.55346
443.6602	59.80731
443.825	61.0541
443.9898	65.04012
444.1546	63.87623
444.3193	59.74404
444.4841	58.53496
444.6488	60.42566
444.8136	61.49197
444.9783	55.82448
445.1431	59.96746
445.3078	59.18059
445.4725	59.94085
445.6372	51.002
445.802	55.99287
445.9667	56.23108
446.1314	60.23471
446.2961	60.20674
446.4608	60.62672
446.6255	62.09551
446.7901	65.40411
446.9548	61.94881
447.1195	64.10423
447.2841	66.14993
447.4488	68.28681
447.6134	68.28971
447.7781	68.60859
447.9427	69.14423
448.1074	64.28655
448.272	65.02415
448.4366	61.78868
448.6012	64.86484
448.7658	71.05881
448.9305	64.35407
449.095	63.88088
449.2596	61.06097
449.4242	63.95118
449.5888	65.66901
449.7534	65.27928
449.9179	71.6846
450.0825	69.38953
450.2471	63.24136
450.4116	68.09337
450.5762	64.20132
450.7407	69.31067
450.9052	66.33175
451.0698	71.51517
451.2343	73.01213
451.3988	69.68121
451.5633	74.03608
451.7278	72.50648
451.8923	69.77538
452.0568	72.11856
452.2213	71.30053
452.3858	70.98483
452.5503	69.37539
452.7148	64.21857
452.8792	67.03297
453.0437	64.34371
453.2081	66.41167
453.3726	61.48506
453.537	69.54958
453.7015	68.85075
453.8659	74.67577
454.0303	74.48235
454.1947	76.24329
454.3592	76.48783
454.5236	74.76296
454.688	75.2096
454.8524	67.14431
455.0168	69.98563
455.1811	70.58913
455.3455	71.4142
455.5099	64.90799
455.6743	71.20563
455.8386	76.25688
456.003	75.61901
456.1673	81.92597
456.3317	78.33019
456.496	74.13093
456.6603	74.78004
456.8246	69.14939
456.989	76.1467
457.1533	73.12
457.3176	75.27131
457.4819	80.24043
457.6462	77.65082
457.8105	71.26325
457.9748	73.2178
458.1391	76.0308
458.3033	81.11336
458.4676	77.04676
458.6319	70.50774
458.7961	80.08071
458.9604	76.38631
459.1246	77.8388
459.2888	72.33522
459.4531	71.9573
459.6173	72.34467
459.7815	74.2244
459.9457	73.35625
460.11	71.77642
460.2741	71.54858
460.4384	75.14455
460.6025	72.54704
460.7667	76.57455
460.9309	78.17452
461.0951	79.1326
461.2592	75.67398
461.4234	73.82252
461.5876	73.55924
461.7517	79.81461
461.9159	76.55656
462.08	77.6796
462.2441	82.74821
462.4082	81.19983
462.5724	77.62102
462.7365	75.966
462.9006	79.20036
463.0647	81.89532
463.2288	79.2517
463.3929	73.88224
463.557	70.25562
463.721	78.25873
463.8851	78.83561
464.0492	79.71989
464.2132	76.91647
464.3773	76.97429
464.5414	82.97777
464.7054	83.48866
464.8694	79.64175
465.0334	71.74947
465.1975	72.49837
465.3615	74.52751
465.5255	75.57339
465.6895	78.05645
465.8535	78.57265
466.0175	81.90697
466.1815	80.60202
466.3455	78.89043
466.5095	79.603
466.6734	75.93172
466.8374	76.25879
467.0014	77.88042
467.1653	80.17754
467.3293	76.31707
467.4932	81.00565
467.6571	77.8298
467.8211	85.01573
467.985	78.83689
468.1489	81.77233
468.3128	84.45156
468.4767	82.20109
468.6406	82.14179
468.8045	78.57902
468.9684	84.45079
469.1323	84.22437
469.2962	83.00148
469.46	86.07835
469.6239	89.62346
469.7878	78.8843
469.9516	76.02556
470.1154	78.02843
470.2793	78.62396
470.4431	79.59673
470.607	75.83094
470.7708	76.58051
470.9346	77.83823
471.0984	79.66972
471.2622	84.80795
471.426	84.43381
471.5898	91.8084
471.7536	87.55696
471.9174	85.68931
472.0811	81.33778
472.2449	89.26156
472.4087	82.63579
472.5724	83.60514
472.7362	84.9008
472.8999	76.05243
473.0637	77.95405
473.2274	83.95801
473.3911	75.03259
473.5548	78.90644
473.7185	85.4325
473.8822	83.62822
474.0459	83.92444
474.2096	86.62116
474.3733	86.74918
474.537	89.56915
474.7007	87.52436
474.8643	86.88512
475.028	86.01772
475.1917	84.67093
475.3553	88.69533
475.519	89.90659
475.6826	83.99959
475.8463	88.34821
476.0099	83.47436
476.1735	82.879
476.3371	78.99162
476.5007	81.71439
476.6643	82.99331
476.8279	83.37961
476.9915	82.82151
477.1551	83.65831
477.3187	85.77029
477.4823	93.02281
477.6458	89.88985
477.8094	85.03798
477.9729	82.27824
478.1365	82.86497
478.3	84.73444
478.4636	85.83215
478.6271	84.57221
478.7906	84.13078
478.9541	82.79996
479.1176	86.09422
479.2812	88.81451
479.4447	90.14836
479.6082	91.90923
479.7716	91.35871
479.9351	87.77695
480.0986	88.51596
480.2621	87.62278
480.4255	85.80508
480.589	83.96354
480.7524	87.15638
480.9159	87.99532
481.0793	81.58346
481.2428	82.94724
481.4062	87.29543
481.5696	90.75089
481.733	92.06236
481.8964	87.43533
482.0598	86.75512
482.2232	88.59431
482.3866	89.8557
482.55	85.42945
482.7134	84.08842
482.8768	90.30975
483.0401	85.22675
483.2035	80.96861
483.3668	90.2031
483.5302	85.6514
483.6935	89.22576
483.8568	87.07653
484.0202	83.11021
484.1835	86.48446
484.3468	88.02566
484.5101	88.08427
484.6734	84.91071
484.8367	83.8528
485	85.52642
485.1633	86.82749
485.3266	85.37069
485.4899	85.29229
485.6531	82.51243
485.8164	80.90071
485.9796	67.64713
486.1429	66.8168
486.3061	65.27245
486.4694	76.13665
486.6326	80.11433
486.7958	83.99996
486.959	83.45714
487.1223	77.46155
487.2855	74.28409
487.4486	82.10876
487.6118	82.08642
487.775	86.53852
487.9382	89.86706
488.1014	90.36846
488.2646	91.88724
488.4277	83.73427
488.5909	86.54084
488.754	87.43222
488.9171	89.87623
489.0803	83.91417
489.2434	80.43285
489.4066	84.41679
489.5697	91.36065
489.7328	93.72531
489.8959	95.84613
490.059	99.1736
490.2221	91.10786
490.3852	92.92186
490.5482	91.08265
490.7113	90.48432
490.8744	90.07682
491.0374	93.3059
491.2005	94.55319
491.3636	90.23013
491.5266	82.75409
491.6896	88.58422
491.8527	85.6047
492.0157	87.00226
492.1787	85.50579
492.3417	82.71615
492.5047	88.81081
492.6677	91.35101
492.8307	99.61682
492.9937	96.6248
493.1567	92.7086
493.3196	84.84028
493.4826	86.54133
493.6456	92.32033
493.8085	88.52279
493.9715	88.0681
494.1344	90.57488
494.2974	91.35172
494.4603	97.08066
494.6232	95.2979
494.7861	95.4699
494.949	94.48556
495.1119	95.38299
495.2748	99.3082
495.4377	97.54916
495.6006	94.20949
495.7635	89.08823
495.9264	88.18042
496.0892	92.80551
496.2521	96.41624
496.4149	98.39227
496.5778	97.85217
496.7407	101.7683
496.9035	99.27779
497.0663	99.46744
497.2291	98.0799
497.3919	97.51883
497.5547	96.42013
497.7176	101.423
497.8804	98.29926
498.0432	96.84799
498.2059	97.5071
498.3687	91.11243
498.5315	92.24264
498.6942	93.8772
498.857	97.33618
499.0198	105.1547
499.1825	103.8982
499.3452	99.37447
499.508	102.038
499.6707	97.92649
499.8334	101.7091
499.9962	101.8562
500.1589	99.47301
500.3216	98.25489
500.4843	95.14449
500.6469	95.06109
500.8096	95.63341
500.9723	99.67661
501.135	95.9271
501.2976	92.06767
501.4603	92.41415
501.623	97.9619
501.7856	95.70996
501.9482	100.22
502.1109	95.84485
502.2735	106.5805
502.4361	107.0115
502.5987	105.6498
502.7614	104.208
502.924	101.8987
503.0865	111.7569
503.2491	108.0679
503.4117	109.7579
503.5743	104.3723
503.7368	104.8893
503.8994	99.66254
504.062	99.64787
504.2245	101.7754
504.3871	99.34918
504.5496	102.8706
504.7121	110.4894
504.8746	106.0106
505.0372	108.611
505.1997	103.8136
505.3622	109.6929
505.5247	116.8183
505.6872	111.077
505.8497	112.7803
506.0121	117.9311
506.1746	114.3147
506.3371	116.7284
506.4995	112.5038
506.662	111.8971
506.8244	115.0211
506.9869	108.979
507.1493	111.5379
507.3117	112.4784
507.4742	119.4767
507.6366	116.8768
507.799	112.8554
507.9614	111.2533
508.1238	114.7713
508.2862	113.6307
508.4485	116.9609
508.6109	120.2982
508.7733	114.1036
508.9357	125.7544
509.098	129.0471
509.2604	126.6979
509.4227	125.5543
509.5851	131.2842
509.7474	123.5883
509.9097	123.0599
510.072	122.1518
510.2343	122.0068
510.3966	126.6581
510.5589	124.6472
510.7212	120.9306
510.8835	121.7598
511.0458	123.0952
511.2081	131.5218
511.3703	132.9024
511.5326	127.9107
511.6949	133.8792
511.8571	133.2237
512.0193	129.5062
512.1816	128.3996
512.3438	129.0968
512.506	130.5832
512.6682	134.2697
512.8304	131.6294
512.9926	131.5805
513.1548	137.6827
513.317	136.2705
513.4792	136.1246
513.6414	132.9
513.8035	133.1606
513.9657	133.8756
514.1279	132.0613
514.29	127.29
514.4521	131.38
514.6143	126.5685
514.7764	127.7972
514.9385	131.938
515.1006	135.5255
515.2628	135.8296
515.4249	140.8354
515.587	135.3375
515.7491	142.4099
515.9111	145.6509
516.0732	140.6963
516.2353	142.0564
516.3973	146.2676
516.5594	136.4428
