SPECTRUM DATA FILE
SpectrumCount:	1
PixelCount:	3648
UserName:	ToughBook User
SampleName:	
LightSource:	
Comments:	
DeviceName:	Qwave
DeviceManufacturer:	Broadcom
DeviceSerialNo:	11311

Name:	last spectrum
Date:	2024-05-02T14:42:04.3230401+02:00
ExposureTime:	0.02
TemporalAvg:	1
IntensityUnit:	normalizedCounts
CCDLoadLevel:	0.05513715
Temperature:	31.05875
DiagramColor:	200
ProcessingSteps:	335

Wavelength [nm]	Intensity1
334.421	3.672647
334.5891	5.043172
334.7573	9.340719
334.9254	8.382298
335.0935	7.183722
335.2616	8.562212
335.4297	4.17666
335.5978	9.014354
335.7659	2.377114
335.934	1.993778
336.1021	4.477071
336.2701	5.278245
336.4382	4.063027
336.6063	4.732149
336.7744	6.758293
336.9424	5.400252
337.1105	7.701839
337.2785	0.8891956
337.4466	3.331177
337.6146	1.45269
337.7827	5.256525
337.9507	6.498238
338.1187	5.441598
338.2867	0.8140716
338.4548	0.5349088
338.6228	9.206723
338.7908	5.112971
338.9588	7.458275
339.1268	6.502747
339.2948	3.349334
339.4628	8.126419
339.6308	5.341816
339.7988	1.790506
339.9667	0.4383619
340.1347	2.451527
340.3027	5.052632
340.4707	3.076643
340.6386	3.380525
340.8066	4.698637
340.9745	5.17966
341.1425	9.119139
341.3104	7.162653
341.4784	5.040632
341.6463	4.465388
341.8142	6.453411
341.9821	9.138096
342.1501	6.154875
342.318	1.447159
342.4859	1.305316
342.6538	6.552772
342.8217	6.73547
342.9896	3.281726
343.1575	4.268349
343.3254	4.78944
343.4933	3.923663
343.6612	4.6864
343.829	6.00923
343.9969	6.183846
344.1648	9.452101
344.3326	6.566315
344.5005	3.235967
344.6683	10.31889
344.8362	2.792769
345.004	-0.8526926
345.1719	3.316441
345.3397	6.765927
345.5075	4.713485
345.6754	6.599386
345.8432	5.299098
346.011	3.155085
346.1788	0.6462082
346.3466	-1.002111
346.5144	2.572858
346.6822	6.41429
346.85	5.710121
347.0178	8.375892
347.1856	8.491199
347.3534	5.269294
347.5211	0.07958511
347.6889	4.69912
347.8567	7.051076
348.0244	3.387267
348.1922	5.400405
348.3599	7.431467
348.5277	0.2000658
348.6954	3.276756
348.8632	7.47434
349.0309	6.578962
349.1986	9.709196
349.3663	5.809252
349.5341	5.256869
349.7018	4.188473
349.8695	6.336189
350.0372	6.264171
350.2049	7.581363
350.3726	13.78024
350.5403	7.441851
350.7079	5.147884
350.8756	5.984011
351.0433	4.551197
351.211	7.281003
351.3786	11.3153
351.5463	6.451227
351.714	9.262954
351.8816	6.878165
352.0493	8.097445
352.2169	10.34844
352.3846	7.953147
352.5522	4.084889
352.7198	3.063566
352.8875	5.78803
353.0551	7.935789
353.2227	7.703057
353.3903	4.399728
353.5579	7.546904
353.7255	5.400754
353.8931	4.960032
354.0607	8.555872
354.2283	4.49831
354.3958	6.787662
354.5634	8.261436
354.731	4.511619
354.8986	0.778913
355.0661	5.042069
355.2337	3.521732
355.4012	8.289751
355.5688	1.695764
355.7363	8.047688
355.9039	6.853469
356.0714	8.007631
356.239	2.36604
356.4065	1.282963
356.574	6.024448
356.7415	7.574502
356.909	10.74355
357.0765	6.341349
357.244	7.45795
357.4115	2.885032
357.579	4.877067
357.7465	4.222693
357.914	3.310215
358.0815	4.121978
358.249	4.49383
358.4164	8.135536
358.5839	9.336396
358.7513	4.605004
358.9188	4.446629
359.0862	6.880919
359.2537	6.240882
359.4211	3.567025
359.5886	5.079681
359.756	5.96897
359.9234	8.367536
360.0909	9.582063
360.2583	6.766713
360.4257	6.759369
360.5931	6.614636
360.7605	5.50777
360.9279	2.934945
361.0953	7.72768
361.2627	8.381017
361.4301	4.691009
361.5974	0.4466904
361.7648	2.654536
361.9322	6.704483
362.0995	5.631785
362.2669	10.01155
362.4343	8.843651
362.6016	12.54909
362.769	12.21671
362.9363	10.4728
363.1036	7.305436
363.271	7.159081
363.4383	4.441978
363.6056	6.128372
363.7729	3.818807
363.9402	5.928518
364.1075	12.46757
364.2748	7.64078
364.4421	5.713939
364.6094	6.199914
364.7767	4.747143
364.944	7.827456
365.1113	4.027542
365.2786	10.72043
365.4458	10.32906
365.6131	5.471194
365.7803	11.24222
365.9476	13.15337
366.1148	9.632416
366.2821	12.1868
366.4493	8.643555
366.6166	8.570023
366.7838	12.4312
366.951	7.848248
367.1182	3.346883
367.2855	4.324533
367.4527	6.728931
367.6199	7.650908
367.7871	8.74031
367.9543	8.271926
368.1215	8.05356
368.2886	10.76299
368.4558	11.4428
368.623	8.47834
368.7902	11.33422
368.9573	8.343876
369.1245	10.76034
369.2917	6.554935
369.4588	5.960879
369.6259	6.650198
369.7931	8.226728
369.9602	12.03987
370.1274	11.96772
370.2945	6.792782
370.4616	8.775951
370.6287	9.932099
370.7958	7.935446
370.963	8.518748
371.1301	5.603823
371.2971	11.14818
371.4643	10.92304
371.6313	6.340648
371.7984	7.594356
371.9655	7.093212
372.1326	8.271159
372.2997	6.791049
372.4667	9.40132
372.6338	11.77052
372.8008	13.04146
372.9679	13.06509
373.1349	12.74384
373.3019	6.6407
373.469	3.771884
373.636	3.114042
373.803	11.95334
373.9701	11.39378
374.1371	9.343251
374.3041	3.881401
374.4711	4.075817
374.6381	7.427753
374.8051	7.962209
374.9721	9.137322
375.1391	10.61618
375.3061	11.58055
375.473	11.51087
375.64	10.79615
375.8069	10.74982
375.9739	8.778936
376.1409	7.704363
376.3078	10.69904
376.4748	7.322575
376.6417	10.90657
376.8087	8.893812
376.9756	10.40793
377.1425	10.08797
377.3094	6.890582
377.4763	11.16256
377.6432	14.06289
377.8102	10.12761
377.9771	7.645391
378.144	10.75259
378.3109	6.669939
378.4777	5.417119
378.6446	6.706821
378.8115	10.94662
378.9784	10.68708
379.1452	11.03915
379.3121	10.1735
379.4789	13.05737
379.6458	9.729067
379.8127	8.791862
379.9795	9.698244
380.1463	11.3657
380.3131	11.04902
380.48	11.7854
380.6468	12.1814
380.8136	6.015773
380.9804	10.64459
381.1472	8.618726
381.314	11.65421
381.4808	11.89004
381.6476	4.817257
381.8144	6.734755
381.9812	5.659787
382.148	10.77958
382.3147	5.467389
382.4815	11.32245
382.6483	8.91525
382.815	10.32156
382.9818	4.587359
383.1485	7.918832
383.3153	3.782793
383.482	9.656418
383.6487	9.767037
383.8155	13.33234
383.9822	9.833031
384.1489	10.01931
384.3156	8.381924
384.4823	10.14309
384.649	10.31951
384.8157	8.2911
384.9824	11.08305
385.1491	8.919856
385.3158	8.306379
385.4825	11.94338
385.6491	13.10393
385.8158	14.87157
385.9825	12.86541
386.1491	9.981197
386.3157	7.128771
386.4824	14.74556
386.649	9.242702
386.8157	10.96169
386.9823	9.788239
387.1489	10.25789
387.3156	8.427556
387.4821	8.231023
387.6488	10.40586
387.8154	9.487288
387.982	13.50256
388.1486	13.14791
388.3152	7.478129
388.4818	10.91043
388.6483	16.19218
388.8149	6.41434
388.9815	10.50377
389.148	15.50774
389.3146	17.90519
389.4811	12.77827
389.6477	10.28141
389.8142	10.22464
389.9808	11.30208
390.1473	13.2898
390.3138	10.5327
390.4804	12.51026
390.6469	8.371568
390.8134	14.17232
390.9799	11.67455
391.1464	12.72552
391.3129	12.89245
391.4794	11.74924
391.6459	11.7273
391.8124	10.28531
391.9789	14.24671
392.1453	10.33939
392.3118	10.07372
392.4782	12.54048
392.6447	14.22623
392.8112	12.23256
392.9776	9.197458
393.144	8.143098
393.3105	7.477998
393.4769	7.469997
393.6433	10.17681
393.8098	7.174801
393.9762	9.906331
394.1426	11.29716
394.309	13.2841
394.4754	16.91584
394.6418	16.47359
394.8082	11.92083
394.9746	14.11226
395.141	13.86102
395.3073	15.79283
395.4737	18.21229
395.64	14.19087
395.8064	14.69183
395.9728	13.6126
396.1391	12.13242
396.3055	16.39729
396.4718	13.21177
396.6381	9.597032
396.8045	8.662267
396.9708	10.71204
397.1371	11.65333
397.3034	9.593999
397.4697	13.60207
397.636	15.69935
397.8023	18.76293
397.9686	15.23834
398.1349	17.54307
398.3012	16.75611
398.4675	19.98595
398.6337	15.01728
398.8	22.51022
398.9662	19.01138
399.1325	17.66855
399.2988	17.51863
399.465	14.12821
399.6313	17.27861
399.7975	13.97556
399.9637	16.77144
400.1299	21.7647
400.2961	23.36911
400.4624	16.73918
400.6286	18.53342
400.7948	19.09995
400.961	21.12885
401.1272	20.81503
401.2934	20.62345
401.4595	16.75532
401.6257	15.64452
401.7919	14.24963
401.9581	18.96399
402.1242	21.4567
402.2904	18.7371
402.4565	19.0071
402.6227	19.31437
402.7888	15.33
402.955	18.94942
403.1211	19.08758
403.2872	16.05536
403.4533	18.1452
403.6194	22.10331
403.7856	24.06209
403.9517	21.19608
404.1177	22.63088
404.2838	21.68643
404.4499	18.02942
404.616	16.65538
404.7821	12.91844
404.9482	19.90432
405.1142	19.94827
405.2803	21.28499
405.4464	18.78844
405.6124	13.93524
405.7784	16.66638
405.9445	19.85126
406.1105	26.59741
406.2766	25.98648
406.4426	19.08617
406.6086	14.64023
406.7746	19.18353
406.9406	21.31779
407.1066	24.10742
407.2726	22.96815
407.4386	19.70957
407.6046	19.73976
407.7706	22.41291
407.9366	17.1718
408.1025	19.65652
408.2685	21.7909
408.4344	18.40942
408.6004	20.28237
408.7664	21.15623
408.9323	28.857
409.0983	20.42585
409.2642	23.18025
409.4301	27.95361
409.596	24.35704
409.762	22.36132
409.9279	22.84419
410.0938	22.03912
410.2597	23.11073
410.4256	26.13057
410.5915	23.39037
410.7574	28.50215
410.9232	22.89989
411.0891	24.08764
411.255	19.61069
411.4209	25.94819
411.5867	30.48787
411.7526	27.82852
411.9184	25.47561
412.0843	27.40471
412.2501	27.22672
412.4159	27.46018
412.5818	25.35451
412.7476	22.08395
412.9134	23.21989
413.0792	24.01116
413.245	27.27956
413.4108	24.84342
413.5766	20.83371
413.7424	26.01178
413.9082	31.50965
414.074	24.59919
414.2397	27.11646
414.4055	32.51957
414.5713	24.33955
414.737	28.54412
414.9028	29.53283
415.0685	26.20208
415.2343	27.41658
415.4	27.73189
415.5658	25.89915
415.7315	27.28393
415.8972	29.63478
416.0629	30.98608
416.2286	31.81488
416.3943	28.47264
416.56	27.86655
416.7257	27.60227
416.8914	27.51419
417.0571	27.71225
417.2228	24.73002
417.3884	28.22834
417.5541	31.27205
417.7198	28.67455
417.8854	26.82273
418.0511	30.40853
418.2167	33.64035
418.3824	28.79228
418.548	27.19586
418.7136	30.38849
418.8792	29.33554
419.0449	29.41759
419.2105	26.95683
419.3761	26.36254
419.5417	31.89737
419.7073	31.734
419.8729	26.2485
420.0385	26.91576
420.204	31.06911
420.3696	31.19838
420.5352	33.57325
420.7007	31.18488
420.8663	31.44594
421.0319	36.76646
421.1974	33.18562
421.3629	36.06402
421.5285	37.13409
421.694	32.91229
421.8595	34.00827
422.0251	30.72334
422.1906	32.19313
422.3561	28.18109
422.5216	32.19456
422.6871	32.31798
422.8526	32.08047
423.0181	29.69168
423.1835	31.40458
423.349	32.76175
423.5145	31.95456
423.68	27.72179
423.8454	31.70298
424.0109	33.59363
424.1763	37.63475
424.3418	38.18667
424.5072	37.13259
424.6726	43.47557
424.838	36.44232
425.0035	35.79894
425.1689	34.28724
425.3343	29.07522
425.4997	36.48623
425.6651	36.80396
425.8305	41.10457
425.9959	36.55658
426.1613	32.82756
426.3267	40.66691
426.492	35.62498
426.6574	37.66971
426.8228	34.79534
426.9881	34.13993
427.1534	33.32319
427.3188	32.63211
427.4841	30.44471
427.6495	38.94474
427.8148	36.49605
427.9801	40.56542
428.1454	33.59883
428.3107	34.12341
428.476	32.48385
428.6414	35.59745
428.8066	38.85904
428.9719	31.1905
429.1372	33.67401
429.3025	35.93836
429.4678	33.72894
429.633	31.10264
429.7983	34.40959
429.9636	29.18007
430.1288	29.76674
430.294	29.57284
430.4593	32.36543
430.6245	32.25838
430.7897	29.76499
430.955	29.01286
431.1202	31.82679
431.2854	30.50768
431.4506	35.13492
431.6158	42.64839
431.781	38.4025
431.9462	42.22631
432.1114	42.17227
432.2766	37.28558
432.4417	35.25385
432.6069	36.41797
432.772	40.43704
432.9372	40.77787
433.1024	46.70163
433.2675	43.0102
433.4326	40.38516
433.5977	40.35295
433.7629	38.15637
433.928	35.93089
434.0931	38.98982
434.2582	33.7882
434.4233	38.9967
434.5884	44.19999
434.7535	44.34861
434.9186	45.496
435.0837	38.85067
435.2488	40.60847
435.4138	42.07804
435.5789	44.03809
435.744	42.07884
435.909	49.92801
436.0741	45.593
436.2391	44.60719
436.4042	46.83027
436.5692	50.40919
436.7342	49.72083
436.8992	44.70104
437.0643	48.85318
437.2293	47.83813
437.3943	45.89818
437.5593	47.86031
437.7243	49.17684
437.8893	40.62198
438.0542	44.93464
438.2192	43.05177
438.3842	40.57471
438.5491	40.47454
438.7141	47.97591
438.8791	45.45664
439.044	46.03866
439.209	54.78014
439.3739	49.88679
439.5388	49.3746
439.7037	50.22219
439.8687	50.06049
440.0336	48.76274
440.1985	50.7921
440.3634	46.98338
440.5283	46.17289
440.6932	44.4643
440.8581	47.47226
441.0229	48.51564
441.1878	54.54284
441.3527	55.25952
441.5175	53.02918
441.6824	53.52433
441.8472	53.40089
442.0121	52.68629
442.1769	54.454
442.3418	51.65231
442.5066	55.41486
442.6714	54.63092
442.8362	48.78764
443.001	54.70632
443.1659	57.69217
443.3307	53.48244
443.4955	52.00613
443.6602	53.10259
443.825	54.6334
443.9898	54.54705
444.1546	54.81756
444.3193	52.34957
444.4841	59.51315
444.6488	58.0478
444.8136	53.33015
444.9783	60.23281
445.1431	57.90712
445.3078	51.24623
445.4725	52.73513
445.6372	49.31719
445.802	51.27673
445.9667	49.33819
446.1314	54.97828
446.2961	51.13067
446.4608	52.74859
446.6255	52.443
446.7901	54.54892
446.9548	60.00728
447.1195	60.8566
447.2841	55.99837
447.4488	58.92985
447.6134	64.64304
447.7781	57.45776
447.9427	59.08788
448.1074	54.44311
448.272	59.55125
448.4366	66.26015
448.6012	61.17664
448.7658	66.03303
448.9305	59.77691
449.095	60.51319
449.2596	60.58336
449.4242	60.90837
449.5888	58.51557
449.7534	63.90811
449.9179	61.61102
450.0825	61.56395
450.2471	65.5817
450.4116	65.13925
450.5762	70.76475
450.7407	68.38916
450.9052	64.10225
451.0698	69.99895
451.2343	68.66184
451.3988	65.92903
451.5633	63.672
451.7278	61.19857
451.8923	64.57911
452.0568	65.29158
452.2213	67.84621
452.3858	67.46307
452.5503	64.61398
452.7148	65.25414
452.8792	56.03228
453.0437	56.78552
453.2081	56.38893
453.3726	60.75578
453.537	65.18912
453.7015	66.68137
453.8659	66.47445
454.0303	65.22876
454.1947	70.66041
454.3592	69.72776
454.5236	65.90568
454.688	64.16019
454.8524	63.96465
455.0168	61.22257
455.1811	68.89033
455.3455	63.46964
455.5099	61.63164
455.6743	65.86977
455.8386	70.85986
456.003	73.76631
456.1673	68.37455
456.3317	73.31419
456.496	70.68004
456.6603	69.13272
456.8246	72.72629
456.989	70.36932
457.1533	71.02502
457.3176	73.1259
457.4819	69.79604
457.6462	71.48756
457.8105	72.86118
457.9748	68.62127
458.1391	71.01618
458.3033	68.09471
458.4676	66.16139
458.6319	66.69308
458.7961	69.13312
458.9604	71.95596
459.1246	71.99706
459.2888	65.18174
459.4531	70.22448
459.6173	72.86877
459.7815	70.26889
459.9457	69.947
460.11	69.01635
460.2741	64.11999
460.4384	65.0555
460.6025	66.92883
460.7667	71.42367
460.9309	68.08827
461.0951	74.00685
461.2592	71.97665
461.4234	68.33234
461.5876	77.21998
461.7517	73.04781
461.9159	72.49155
462.08	71.44632
462.2441	67.23785
462.4082	70.22871
462.5724	75.72262
462.7365	74.26971
462.9006	70.25323
463.0647	71.27312
463.2288	73.30792
463.3929	74.28217
463.557	67.19366
463.721	76.07418
463.8851	73.60924
464.0492	68.92906
464.2132	65.56274
464.3773	70.03894
464.5414	69.37738
464.7054	69.91281
464.8694	68.69039
465.0334	73.03025
465.1975	72.66629
465.3615	68.58437
465.5255	68.26588
465.6895	75.68515
465.8535	74.62913
466.0175	75.65154
466.1815	73.67052
466.3455	72.27472
466.5095	65.71947
466.6734	67.36803
466.8374	70.7405
467.0014	72.93216
467.1653	71.08598
467.3293	71.41548
467.4932	72.67347
467.6571	71.79562
467.8211	72.0807
467.985	69.91299
468.1489	75.68022
468.3128	73.53082
468.4767	77.37634
468.6406	69.6846
468.8045	70.65535
468.9684	72.50042
469.1323	75.13878
469.2962	71.27225
469.46	68.49147
469.6239	82.24329
469.7878	74.37989
469.9516	75.22688
470.1154	74.59875
470.2793	67.79719
470.4431	69.54031
470.607	73.22427
470.7708	69.98852
470.9346	73.12854
471.0984	75.49362
471.2622	76.08842
471.426	73.89534
471.5898	75.20017
471.7536	73.5019
471.9174	74.19764
472.0811	77.79446
472.2449	76.64819
472.4087	74.9406
472.5724	79.74447
472.7362	79.6089
472.8999	78.62074
473.0637	73.93282
473.2274	71.81939
473.3911	74.13338
473.5548	74.87537
473.7185	75.85189
473.8822	73.75713
474.0459	75.68184
474.2096	76.8028
474.3733	79.55513
474.537	81.55585
474.7007	81.73158
474.8643	82.38976
475.028	79.7597
475.1917	80.32333
475.3553	75.43082
475.519	76.92137
475.6826	77.67763
475.8463	79.69797
476.0099	76.2905
476.1735	78.36617
476.3371	70.12833
476.5007	68.63628
476.6643	76.73282
476.8279	75.27021
476.9915	77.27782
477.1551	80.5731
477.3187	80.58469
477.4823	74.43528
477.6458	78.55687
477.8094	74.82889
477.9729	81.77501
478.1365	87.92873
478.3	76.74468
478.4636	77.15289
478.6271	81.10726
478.7906	77.15282
478.9541	73.9526
479.1176	77.81541
479.2812	82.68214
479.4447	84.98373
479.6082	84.9022
479.7716	81.8392
479.9351	74.84611
480.0986	72.53948
480.2621	75.65003
480.4255	82.63485
480.589	78.8821
480.7524	76.35332
480.9159	77.70183
481.0793	78.30651
481.2428	81.44061
481.4062	83.67466
481.5696	81.25455
481.733	79.96482
481.8964	83.78365
482.0598	84.42504
482.2232	82.71444
482.3866	76.16235
482.55	72.54221
482.7134	76.41239
482.8768	79.40723
483.0401	80.53357
483.2035	81.19415
483.3668	80.59413
483.5302	84.27573
483.6935	80.46901
483.8568	77.83241
484.0202	79.97134
484.1835	81.21723
484.3468	82.01593
484.5101	74.75002
484.6734	74.01016
484.8367	78.96892
485	82.4999
485.1633	78.3587
485.3266	77.41824
485.4899	73.30674
485.6531	78.3485
485.8164	70.99632
485.9796	64.55515
486.1429	61.13177
486.3061	63.70032
486.4694	65.06704
486.6326	73.39583
486.7958	73.90926
486.959	76.19197
487.1223	78.2168
487.2855	81.26246
487.4486	75.7567
487.6118	74.04479
487.775	77.87691
487.9382	81.67907
488.1014	86.88929
488.2646	83.13095
488.4277	78.51192
488.5909	78.03644
488.754	78.57502
488.9171	77.81767
489.0803	73.16373
489.2434	78.69502
489.4066	79.41342
489.5697	83.868
489.7328	85.36253
489.8959	84.86391
490.059	84.07485
490.2221	83.74854
490.3852	85.29277
490.5482	87.5554
490.7113	79.11217
490.8744	77.30608
491.0374	79.05174
491.2005	83.12755
491.3636	81.04176
491.5266	81.63783
491.6896	81.45448
491.8527	80.62867
492.0157	78.56644
492.1787	79.0779
492.3417	75.99828
492.5047	76.02432
492.6677	79.62827
492.8307	84.73064
492.9937	82.68298
493.1567	83.69279
493.3196	81.86356
493.4826	81.02251
493.6456	83.64716
493.8085	79.32272
493.9715	84.16184
494.1344	84.30022
494.2974	87.19762
494.4603	87.08138
494.6232	87.57317
494.7861	86.03411
494.949	87.14304
495.1119	83.27026
495.2748	84.90342
495.4377	90.04072
495.6006	83.9772
495.7635	84.6993
495.9264	85.87552
496.0892	89.3129
496.2521	91.73259
496.4149	88.10196
496.5778	93.67396
496.7407	89.35276
496.9035	83.37738
497.0663	83.49603
497.2291	84.00958
497.3919	83.9151
497.5547	90.86599
497.7176	93.45388
497.8804	89.79163
498.0432	81.61402
498.2059	86.58809
498.3687	82.6992
498.5315	83.16483
498.6942	87.34557
498.857	91.8344
499.0198	84.75294
499.1825	92.34398
499.3452	92.19344
499.508	89.49091
499.6707	92.90685
499.8334	91.91567
499.9962	93.65974
500.1589	87.29799
500.3216	90.32346
500.4843	90.32613
500.6469	87.19652
500.8096	86.95862
500.9723	88.71618
501.135	87.51103
501.2976	84.30495
501.4603	89.60231
501.623	91.7252
501.7856	84.92159
501.9482	90.4112
502.1109	95.06662
502.2735	92.46958
502.4361	96.23584
502.5987	100.8229
502.7614	95.51267
502.924	95.0014
503.0865	98.03723
503.2491	99.20558
503.4117	98.51525
503.5743	97.74416
503.7368	93.69525
503.8994	91.07278
504.062	92.65941
504.2245	92.14532
504.3871	98.12941
504.5496	98.98989
504.7121	100.6696
504.8746	101.0112
505.0372	97.89632
505.1997	102.0432
505.3622	102.5409
505.5247	104.4356
505.6872	102.6342
505.8497	103.5584
506.0121	106.1228
506.1746	108.4869
506.3371	110.9282
506.4995	110.9639
506.662	99.5429
506.8244	108.2112
506.9869	107.6022
507.1493	108.8938
507.3117	113.2001
507.4742	106.8281
507.6366	108.0439
507.799	100.0569
507.9614	105.1002
508.1238	104.7077
508.2862	104.4843
508.4485	104.8378
508.6109	110.7207
508.7733	113.9251
508.9357	112.0183
509.098	113.7682
509.2604	114.1413
509.4227	112.5837
509.5851	117.5689
509.7474	118.1103
509.9097	116.6817
510.072	114.7443
510.2343	115.4798
510.3966	113.4989
510.5589	120.7152
510.7212	118.3088
510.8835	123.3168
511.0458	116.4303
511.2081	113.5646
511.3703	117.1631
511.5326	122.871
511.6949	128.8973
511.8571	124.4826
512.0193	121.0651
512.1816	120.66
512.3438	119.4563
512.506	116.3135
512.6682	117.4589
512.8304	120.6638
512.9926	122.2973
513.1548	128.1561
513.317	126.3146
513.4792	123.6157
513.6414	125.873
513.8035	125.5636
513.9657	127.1364
514.1279	124.7267
514.29	125.6806
514.4521	124.6503
514.6143	122.5821
514.7764	127.9821
514.9385	129.5345
515.1006	127.6776
515.2628	132.1555
515.4249	127.1301
515.587	132.2645
515.7491	131.4236
515.9111	136.1177
516.0732	134.5856
516.2353	136.271
